# col1 col2
# An Atlas of Galaxy Spectral Energy Distributions from the Ultraviolet to the Mid-Infrared
# Brown et al. (2014)
# http://dx.doi.org/10.5072/03/529D3551F0117
# 
# Column 1 : Restframe Wavelength (Angstrom)
# Column 2 : Flux per unit wavelength (ergs/s/cm^2/Angstrom)
# Column 3 : Observed wavelength (Angstrom)
# Column 4 : Source (0 = model, 1 = Optical Spectrum, 2 = Akari, 3 = Spitzer IRS)
# 
100.06 2.7598e-24
101.92 4.0438e-24
104.05 5.3913e-24
105.99 7.3385e-24
107.96 1.0128e-23
109.96 1.6048e-23
114.09 2.7054e-23
118.1 4.2565e-23
121.13 1.6554e-22
125.1 2.4251e-22
127.13 2.8552e-22
128.01 3.1375e-22
130.99 3.9215e-22
131.9 4.7578e-22
134.04 5.4615e-22
136.85 7.6064e-22
140.04 9.2477e-22
142.97 2.5698e-21
146.98 6.7253e-21
151.09 8.2134e-21
154.97 1.0101e-20
158.94 1.2364e-20
161.9 1.4257e-20
166.05 1.7371e-20
169.92 2.0637e-20
173.08 2.3524e-20
177.11 2.7626e-20
179.99 3.113e-20
182.07 3.3658e-20
185.89 3.9076e-20
191.09 4.6738e-20
194.2 5.2183e-20
197.81 5.9478e-20
201.95 6.7946e-20
205.23 7.4647e-20
210.01 8.3137e-20
215.9 1.0316e-19
219.91 1.157e-19
222.97 1.2393e-19
227.11 1.3899e-19
229.74 2.2074e-19
234.02 3.9598e-19
240.02 5.326e-19
246.18 5.5095e-19
251.91 6.3073e-19
257.18 5.6572e-19
260.16 6.768e-19
263.78 7.4352e-19
269.31 7.8711e-19
274.31 8.2947e-19
278.77 8.7215e-19
283.95 9.1696e-19
289.9 9.2699e-19
295.97 9.9722e-19
300.78 1.027e-18
307.78 1.1021e-18
317.87 1.2155e-18
328.28 1.304e-18
338.26 1.383e-18
347.73 1.4567e-18
356.65 1.5309e-18
365.8 1.6089e-18
375.18 1.6714e-18
384.81 1.6851e-18
394.68 1.7996e-18
404.8 1.8737e-18
414.23 1.9242e-18
421.93 1.9538e-18
429.78 1.9839e-18
440.8 2.0512e-18
451.07 2.0822e-18
460.52 2.109e-18
470.16 2.141e-18
480.0 2.1885e-18
490.06 2.1912e-18
500.32 2.2397e-18
506.11 2.2486e-18
511.97 2.3968e-18
520.29 2.4168e-18
529.96 2.4254e-18
539.82 2.3951e-18
549.85 2.4538e-18
560.07 2.5489e-18
570.49 2.6234e-18
579.76 2.6027e-18
590.53 2.6848e-18
600.13 2.6635e-18
609.88 2.5176e-18
619.79 2.8544e-18
629.86 2.8776e-18
640.1 2.9144e-18
650.5 2.9857e-18
658.03 3.0109e-18
665.65 3.0926e-18
674.91 3.1109e-18
684.3 3.0509e-18
695.42 3.3335e-18
705.09 3.2243e-18
716.55 3.5066e-18
726.52 3.5597e-18
734.93 3.6141e-18
745.15 3.7889e-18
755.52 3.8906e-18
764.27 3.8423e-18
774.9 4.1695e-18
785.68 4.2911e-18
794.78 4.417e-18
805.83 4.5456e-18
815.16 4.636e-18
824.6 4.9055e-18
834.15 4.3174e-18
845.76 5.066e-18
855.55 5.1664e-18
865.46 5.4289e-18
875.48 5.7046e-18
885.62 6.0497e-18
895.87 6.2984e-18
904.16 6.3362e-18
914.63 9.1479e-18
925.22 5.27e-17
935.93 1.1516e-16
944.59 2.2124e-16
955.53 3.1574e-16
964.37 3.6216e-16
975.54 6.1568e-17
984.57 3.1983e-16
995.97 3.3912e-16
1005.18 4.9193e-16
1014.48 4.693e-16
1023.87 1.9815e-16
1035.73 3.3221e-16
1045.31 6.4557e-16
1054.98 6.419e-16
1064.74 5.1403e-16
1074.6 6.1447e-16
1084.54 4.898e-16
1094.57 6.4941e-16
1104.7 6.6378e-16
1114.92 6.6301e-16
1125.24 6.1803e-16
1135.65 7.6824e-16
1146.16 6.982e-16
1154.1 7.5437e-16
1164.78 7.8715e-16
1175.56 5.6823e-16
1183.71 7.3303e-16
1194.66 4.6836e-16
1205.72 3.42e-16
1214.07 2.1808e-16
1225.31 4.582e-16
1233.8 7.3899e-16
1245.22 8.8322e-16
1253.85 8.8438e-16
1265.45 7.2288e-16
1274.22 1.0731e-15
1286.01 1.1913e-15
1294.93 9.8991e-16
1303.9 9.0188e-16
1315.97 1.1982e-15
1325.09 1.1997e-15
1334.27 1.0583e-15
1343.52 1.3067e-15
1355.96 1.2634e-15
1365.35 1.1274e-15
1374.82 1.232e-15
1384.35 1.2535e-15
1393.94 1.1766e-15
1403.61 1.2027e-15
1416.59 1.1871e-15
1426.41 1.2503e-15
1436.3 1.2092e-15
1442.93 1.3067e-15
1446.26 1.3709e-15
1456.28 1.3351e-15
1466.38 1.2274e-15
1476.54 1.2091e-15
1483.36 1.2651e-15
1493.64 1.3201e-15
1503.99 1.2855e-15
1510.93 1.1501e-15
1517.91 1.2485e-15
1524.91 1.1535e-15
1535.48 1.0127e-15
1546.13 1.1994e-15
1553.26 1.1081e-15
1564.03 1.0915e-15
1574.87 1.1789e-15
1585.79 1.2616e-15
1596.78 1.3164e-15
1604.15 1.2647e-15
1615.27 1.2689e-15
1626.47 1.1827e-15
1633.97 1.2632e-15
1645.3 1.2999e-15
1656.7 1.165e-15
1664.35 1.312e-15
1672.03 1.0853e-15
1675.89 1.3072e-15
1683.62 1.4026e-15
1695.29 1.3102e-15
1703.12 1.2558e-15
1714.93 1.2143e-15
1726.81 1.207e-15
1734.78 1.2951e-15
1746.81 1.2755e-15
1754.87 1.3844e-15
1762.97 1.2355e-15
1775.19 1.3159e-15
1783.39 1.3299e-15
1795.75 1.4393e-15
1804.04 1.4117e-15
1816.54 1.3492e-15
1824.93 1.3479e-15
1833.35 1.3038e-15
1846.06 1.2066e-15
1854.58 1.2448e-15
1863.14 1.2784e-15
1876.05 1.3583e-15
1884.71 1.2929e-15
1893.41 1.2738e-15
1906.54 1.2984e-15
1915.34 1.2941e-15
1924.18 1.2868e-15
1933.06 1.2943e-15
1946.46 1.3625e-15
1955.44 1.3088e-15
1969.0 1.4098e-15
1978.09 1.4278e-15
1982.65 1.3754e-15
1996.39 1.3357e-15
2005.6 1.3559e-15
2014.86 1.3145e-15
2024.16 1.356e-15
2033.5 1.3328e-15
2042.89 1.3844e-15
2057.05 1.2958e-15
2066.55 1.3063e-15
2076.09 1.411e-15
2085.67 1.429e-15
2095.29 1.3693e-15
2104.97 1.3614e-15
2114.68 1.3756e-15
2124.44 1.3963e-15
2134.25 1.2807e-15
2144.1 1.355e-15
2154.0 1.3912e-15
2163.94 1.3362e-15
2173.93 1.3315e-15
2183.96 1.3299e-15
2194.04 1.3972e-15
2204.17 1.3544e-15
2214.35 1.2799e-15
2224.57 1.2579e-15
2234.83 1.3586e-15
2245.15 1.2868e-15
2255.51 1.2393e-15
2265.92 1.267e-15
2276.38 1.3133e-15
2286.89 1.3613e-15
2297.45 1.2958e-15
2302.74 1.2997e-15
2313.37 1.2544e-15
2324.05 1.0472e-15
2334.78 1.1876e-15
2345.55 1.1357e-15
2356.38 1.2556e-15
2367.26 1.1468e-15
2372.71 1.1961e-15
2383.66 1.095e-15
2394.67 1.1831e-15
2405.72 1.1472e-15
2416.83 1.181e-15
2422.4 1.2664e-15
2433.58 1.2308e-15
2444.81 1.3056e-15
2456.1 1.2895e-15
2467.43 1.2855e-15
2473.12 1.2456e-15
2484.54 1.2677e-15
2496.0 1.1985e-15
2507.52 1.3592e-15
2513.3 1.2039e-15
2519.1 1.23e-15
2524.91 1.1919e-15
2536.56 1.2186e-15
2542.41 1.2139e-15
2554.14 1.3177e-15
2565.93 1.2837e-15
2577.78 1.3618e-15
2583.72 1.3504e-15
2595.65 1.3277e-15
2607.63 1.2935e-15
2613.64 1.2767e-15
2625.7 1.3513e-15
2637.82 1.4171e-15
2643.9 1.555e-15
2656.11 1.6158e-15
2662.23 1.4545e-15
2674.52 1.5219e-15
2686.86 1.5454e-15
2693.05 1.4601e-15
2705.49 1.5242e-15
2717.97 1.4346e-15
2724.24 1.4193e-15
2736.81 1.4988e-15
2743.12 1.3124e-15
2755.78 1.3575e-15
2762.14 1.4226e-15
2774.89 1.4852e-15
2787.69 1.3914e-15
2794.12 1.1164e-15
2807.02 1.2009e-15
2813.49 1.4888e-15
2826.48 1.5868e-15
2832.99 1.5412e-15
2846.07 1.481e-15
2852.63 1.4058e-15
2865.8 1.5798e-15
2872.4 1.6217e-15
2885.66 1.6094e-15
2892.31 1.6331e-15
2912.36 1.8116e-15
2932.55 1.7383e-15
2952.88 1.7187e-15
2973.34 1.7549e-15
2987.07 1.766e-15
3007.77 1.795e-15
3028.62 1.8119e-15
3049.62 1.8333e-15
3070.76 1.8635e-15
3092.04 1.8768e-15
3113.47 1.9254e-15
3127.84 1.8935e-15
3149.53 1.9071e-15
3171.36 1.9476e-15
3193.34 1.8519e-15
3208.08 1.9292e-15
3230.32 1.8386e-15
3252.71 2.0213e-15
3267.72 2.1252e-15
3290.37 2.121e-15
3313.18 2.0974e-15
3320.82 2.0705e-15
3328.47 2.1255e-15
3336.15 2.1569e-15
3343.84 2.057e-15
3351.55 2.0971e-15
3359.27 2.133e-15
3367.02 2.0912e-15
3374.78 1.8783e-15
3382.56 1.9777e-15
3390.36 2.1605e-15
3398.17 2.1426e-15
3406.0 2.1054e-15
3413.86 2.1073e-15
3421.73 2.1985e-15
3429.61 2.1653e-15
3437.52 2.1873e-15
3445.44 1.898e-15
3453.39 2.232e-15
3461.35 2.0327e-15
3469.33 2.11e-15
3477.32 2.0056e-15
3485.34 2.0951e-15
3493.38 2.0472e-15
3501.43 2.114e-15
3509.5 2.1432e-15
3517.59 2.0231e-15
3525.7 2.0748e-15
3533.83 2.223e-15
3541.97 2.2903e-15
3550.14 2.2953e-15
3558.32 2.2172e-15
3566.52 2.2738e-15
3574.75 1.9893e-15
3582.99 1.9709e-15
3591.25 1.8994e-15
3599.53 2.2365e-15
3607.82 2.0918e-15
3616.14 2.1354e-15
3624.48 2.1749e-15
3632.83 2.3899e-15
3641.21 2.3461e-15
3649.6 2.1892e-15
3651.3 2.1574e-15
3653.98 1.7694e-15
3656.66 1.6785e-15
3659.33 2.5743e-15
3662.01 2.3083e-15
3664.69 1.6605e-15
3667.36 2.6119e-15
3670.04 1.5383e-15
3672.72 1.5218e-15
3675.39 2.4262e-15
3678.07 1.9847e-15
3680.75 2.1909e-15
3683.42 2.0692e-15
3686.1 1.796e-15
3688.77 1.8071e-15
3691.45 1.5619e-15
3694.13 1.6675e-15
3696.8 2.1309e-15
3699.48 2.362e-15
3702.16 1.9901e-15
3704.83 2.3072e-15
3707.51 1.8223e-15
3710.19 1.6127e-15
3712.86 1.647e-15
3715.54 2.318e-15
3718.22 2.4657e-15
3720.89 2.2566e-15
3723.57 5.4022e-15
3726.25 6.7913e-15
3728.92 7.7306e-15
3731.6 6.2347e-15
3734.28 3.5675e-15
3736.95 2.4606e-15
3739.63 1.96e-15
3742.31 2.5976e-15
3744.98 2.1957e-15
3747.66 1.5999e-15
3750.34 1.9584e-15
3753.01 2.4769e-15
3755.69 2.5293e-15
3758.37 2.6456e-15
3761.04 2.1219e-15
3763.72 2.3968e-15
3766.4 1.3684e-15
3769.07 1.9574e-15
3771.75 2.2607e-15
3774.42 2.5121e-15
3777.1 2.6904e-15
3779.78 2.831e-15
3782.45 2.8864e-15
3785.13 2.8945e-15
3787.81 3.0549e-15
3790.48 3.0742e-15
3793.16 2.9873e-15
3795.84 2.5543e-15
3798.51 2.2075e-15
3801.19 2.535e-15
3803.87 2.5258e-15
3806.54 2.3492e-15
3809.22 2.8496e-15
3811.9 2.9746e-15
3814.57 2.7441e-15
3817.25 3.0321e-15
3819.93 2.6006e-15
3822.6 2.587e-15
3825.28 2.5924e-15
3827.96 2.2387e-15
3830.63 1.8067e-15
3833.31 1.914e-15
3835.99 1.6551e-15
3838.66 1.62e-15
3841.34 1.7857e-15
3844.02 2.5739e-15
3846.69 2.5245e-15
3849.37 2.684e-15
3852.05 2.8295e-15
3854.72 2.943e-15
3857.4 3.1088e-15
3860.07 3.2944e-15
3862.75 2.9552e-15
3865.43 3.174e-15
3868.1 3.2405e-15
3870.78 3.393e-15
3873.46 3.4218e-15
3876.13 2.88e-15
3878.81 2.7066e-15
3881.49 2.7936e-15
3884.16 2.3961e-15
3886.84 2.2856e-15
3889.52 2.7112e-15
3892.19 2.9821e-15
3894.87 2.8944e-15
3897.55 2.9673e-15
3900.22 2.8287e-15
3902.9 3.1937e-15
3905.58 2.9602e-15
3908.25 3.2556e-15
3910.93 3.2704e-15
3913.61 3.5537e-15
3916.28 3.0448e-15
3918.96 3.4767e-15
3921.64 3.6598e-15
3924.31 3.4278e-15
3926.99 3.1646e-15
3929.67 2.8543e-15
3932.34 2.618e-15
3935.02 2.5375e-15
3937.7 2.8326e-15
3940.37 2.8435e-15
3943.05 3.1927e-15
3945.73 3.4756e-15
3948.4 3.3526e-15
3951.08 3.2857e-15
3953.75 3.6075e-15
3956.43 3.1177e-15
3959.11 3.2847e-15
3961.78 2.7131e-15
3964.46 2.5312e-15
3967.14 2.3143e-15
3969.81 2.1063e-15
3972.49 2.2758e-15
3975.17 2.4367e-15
3977.84 2.7322e-15
3980.52 3.0507e-15
3983.2 3.0934e-15
3985.87 3.3313e-15
3988.55 3.5884e-15
3991.23 3.5026e-15
3993.9 3.6428e-15
3996.58 3.4159e-15
3999.26 3.6405e-15
4001.93 3.7553e-15
4004.61 3.7071e-15
4007.29 3.6781e-15
4009.96 3.6356e-15
4012.64 3.6394e-15
4015.32 3.7818e-15
4017.99 4.2252e-15
4020.67 4.0039e-15
4023.35 3.9726e-15
4026.02 4.1214e-15
4028.7 3.6582e-15
4031.38 3.5152e-15
4034.05 4.0839e-15
4036.73 3.482e-15
4039.4 3.8275e-15
4042.08 4.0551e-15
4044.76 3.9974e-15
4047.43 4.0273e-15
4050.11 4.0485e-15
4052.79 3.5079e-15
4055.46 3.6936e-15
4058.14 3.9165e-15
4060.82 3.8624e-15
4063.49 3.8729e-15
4066.17 3.8233e-15
4068.85 3.7813e-15
4071.52 3.8634e-15
4074.2 3.5788e-15
4076.88 3.7311e-15
4079.55 3.8054e-15
4082.23 3.8332e-15
4084.91 3.5265e-15
4087.58 3.6116e-15
4090.26 3.3136e-15
4092.94 3.5322e-15
4095.61 3.5054e-15
4098.29 3.0598e-15
4100.97 2.8475e-15
4103.64 3.3261e-15
4106.32 3.1782e-15
4109.0 3.3937e-15
4111.67 3.5252e-15
4114.35 3.6705e-15
4117.03 3.5917e-15
4119.7 3.6388e-15
4122.38 3.919e-15
4125.05 3.7875e-15
4127.73 3.7437e-15
4130.41 3.9434e-15
4133.08 3.7994e-15
4135.76 4.0203e-15
4138.44 3.7917e-15
4141.11 3.5819e-15
4143.79 3.8482e-15
4146.47 3.7934e-15
4149.14 4.0883e-15
4151.82 3.9604e-15
4154.5 3.7927e-15
4157.17 3.9238e-15
4159.85 3.7962e-15
4162.53 4.1563e-15
4165.2 4.2679e-15
4167.88 3.8175e-15
4170.56 3.8909e-15
4173.23 3.6142e-15
4175.91 3.9317e-15
4178.59 4.342e-15
4181.26 3.8353e-15
4183.94 3.8796e-15
4186.62 4.2141e-15
4189.29 4.0138e-15
4191.97 4.0443e-15
4194.65 3.617e-15
4197.32 3.757e-15
4200.0 4.0921e-15
4202.68 4.0022e-15
4205.35 3.5762e-15
4208.03 3.9576e-15
4210.71 4.1552e-15
4213.38 4.3225e-15
4216.06 4.3871e-15
4218.73 4.126e-15
4221.41 3.9728e-15
4224.09 3.8844e-15
4226.76 3.8377e-15
4229.44 3.5521e-15
4232.12 3.6811e-15
4234.79 3.8886e-15
4237.47 4.0165e-15
4240.15 3.9925e-15
4242.82 4.0448e-15
4245.5 3.9028e-15
4248.18 3.8284e-15
4250.85 4.0962e-15
4253.53 4.0548e-15
4256.21 3.9964e-15
4258.88 4.1534e-15
4261.56 3.8727e-15
4264.24 3.7905e-15
4266.91 3.9124e-15
4269.59 4.0293e-15
4272.27 4.0583e-15
4274.94 3.7794e-15
4277.62 3.907e-15
4280.3 4.0449e-15
4282.97 3.8838e-15
4285.65 4.1396e-15
4288.33 3.955e-15
4291.0 3.6271e-15
4293.68 3.5558e-15
4296.36 3.3672e-15
4299.03 3.7744e-15
4301.71 3.5744e-15
4304.38 3.2154e-15
4307.06 3.2336e-15
4309.74 3.5543e-15
4312.41 3.7498e-15
4315.09 3.5747e-15
4317.77 3.8775e-15
4320.44 3.8636e-15
4323.12 3.844e-15
4325.8 3.472e-15
4328.47 3.6103e-15
4331.15 3.7636e-15
4333.83 3.5842e-15
4336.5 3.7779e-15
4339.18 3.7532e-15
4341.86 3.6971e-15
4344.53 3.5505e-15
4347.21 3.3603e-15
4349.89 3.34e-15
4352.56 3.4509e-15
4355.24 3.8673e-15
4357.92 4.3169e-15
4360.59 4.5496e-15
4363.27 4.2695e-15
4365.95 4.1483e-15
4368.62 4.1915e-15
4371.3 4.3499e-15
4373.98 4.1269e-15
4376.65 4.2589e-15
4379.33 4.1802e-15
4382.01 4.1979e-15
4384.68 4.0153e-15
4387.36 3.8632e-15
4390.03 4.1059e-15
4392.71 4.3503e-15
4395.39 4.1949e-15
4398.06 3.9697e-15
4400.74 4.0055e-15
4403.42 4.0679e-15
4406.09 4.1108e-15
4408.77 4.0916e-15
4411.45 4.0786e-15
4414.12 4.1117e-15
4416.8 4.184e-15
4419.48 4.4601e-15
4422.15 4.137e-15
4424.83 4.1634e-15
4427.51 4.1335e-15
4430.18 4.1406e-15
4432.86 4.1255e-15
4435.54 4.0726e-15
4438.21 4.2332e-15
4440.89 4.1514e-15
4443.57 4.2209e-15
4446.24 4.2641e-15
4448.92 4.1576e-15
4451.6 4.106e-15
4454.27 4.0295e-15
4456.95 4.0569e-15
4459.63 3.8964e-15
4462.3 4.1213e-15
4464.98 4.0547e-15
4467.66 4.1266e-15
4470.33 4.3207e-15
4473.01 4.208e-15
4475.69 4.1498e-15
4478.36 4.2286e-15
4481.04 4.2445e-15
4483.71 4.1645e-15
4486.39 4.2377e-15
4489.07 4.444e-15
4491.74 4.4673e-15
4494.42 4.2276e-15
4497.1 4.4146e-15
4499.77 4.2913e-15
4502.45 4.4563e-15
4505.13 4.4599e-15
4507.8 4.5501e-15
4510.48 4.7542e-15
4513.16 4.6091e-15
4515.83 4.5896e-15
4518.51 4.5641e-15
4521.19 4.4588e-15
4523.86 4.3467e-15
4526.54 4.2414e-15
4529.22 4.1343e-15
4531.89 4.1827e-15
4534.57 4.1015e-15
4537.25 4.0489e-15
4539.92 4.3936e-15
4542.6 4.5247e-15
4545.28 4.2864e-15
4547.95 4.264e-15
4550.63 4.2447e-15
4553.31 4.279e-15
4555.98 4.2118e-15
4558.66 4.2989e-15
4561.34 4.3421e-15
4564.01 4.4043e-15
4566.69 4.2862e-15
4569.36 4.1298e-15
4572.04 4.2433e-15
4574.72 4.4954e-15
4577.39 4.4423e-15
4580.07 4.3798e-15
4582.75 4.1788e-15
4585.42 4.4262e-15
4588.1 4.4003e-15
4590.78 4.5147e-15
4593.45 4.2354e-15
4596.13 4.706e-15
4598.81 4.5795e-15
4601.48 4.4465e-15
4604.16 4.6962e-15
4606.84 4.8609e-15
4609.51 4.8552e-15
4612.19 4.7407e-15
4614.87 4.498e-15
4617.54 4.6653e-15
4620.22 4.7564e-15
4622.9 4.7637e-15
4625.57 4.7452e-15
4628.25 4.994e-15
4630.93 4.7011e-15
4633.6 4.5767e-15
4636.28 4.5834e-15
4638.96 4.5628e-15
4641.63 4.5658e-15
4644.31 4.2808e-15
4646.99 4.4857e-15
4649.66 4.631e-15
4652.34 4.7285e-15
4655.01 4.6128e-15
4657.69 4.6234e-15
4660.37 4.7014e-15
4663.04 4.3872e-15
4665.72 4.8264e-15
4668.4 4.5522e-15
4671.07 4.6251e-15
4673.75 4.4578e-15
4676.43 4.2654e-15
4679.1 4.5046e-15
4681.78 4.6624e-15
4684.46 4.7472e-15
4687.13 4.4285e-15
4689.81 4.6581e-15
4692.49 4.6324e-15
4695.16 4.471e-15
4697.84 4.6559e-15
4700.52 4.4425e-15
4703.19 4.1264e-15
4705.87 4.4043e-15
4708.55 4.3594e-15
4711.22 4.374e-15
4713.9 4.3596e-15
4716.58 4.3624e-15
4719.25 4.4009e-15
4721.93 4.5114e-15
4724.61 4.4667e-15
4727.28 4.6487e-15
4729.96 4.4321e-15
4732.64 4.4186e-15
4735.31 4.4966e-15
4737.99 4.4885e-15
4740.67 4.2194e-15
4743.34 4.6727e-15
4746.02 4.6443e-15
4748.69 4.8102e-15
4751.37 4.6962e-15
4754.05 4.2326e-15
4756.72 4.5901e-15
4759.4 4.2351e-15
4762.08 4.5227e-15
4764.75 4.4411e-15
4767.43 4.3024e-15
4770.11 4.7575e-15
4772.78 4.5355e-15
4775.46 4.5618e-15
4778.14 4.603e-15
4780.81 4.6091e-15
4783.49 4.7304e-15
4786.17 4.3661e-15
4788.84 4.4349e-15
4791.52 4.5758e-15
4794.2 4.6603e-15
4796.87 4.3766e-15
4799.55 4.2067e-15
4802.23 4.3629e-15
4804.9 4.669e-15
4807.58 4.2943e-15
4810.26 4.4062e-15
4812.93 4.3258e-15
4815.61 4.5654e-15
4818.29 4.7409e-15
4820.96 4.6241e-15
4823.64 4.2983e-15
4826.32 3.873e-15
4828.99 4.1525e-15
4831.67 4.3693e-15
4834.34 4.1431e-15
4837.02 4.2699e-15
4839.7 4.4968e-15
4842.37 4.3328e-15
4845.05 4.3609e-15
4847.73 3.986e-15
4850.4 3.8452e-15
4853.08 4.0767e-15
4855.76 4.5415e-15
4858.43 4.5658e-15
4861.11 4.9012e-15
4863.79 4.8767e-15
4866.46 4.1175e-15
4869.14 3.7814e-15
4871.82 3.7508e-15
4874.49 3.7869e-15
4877.17 3.567e-15
4879.85 3.8101e-15
4882.52 4.1635e-15
4885.2 4.275e-15
4887.88 4.0195e-15
4890.55 4.2196e-15
4893.23 4.1588e-15
4895.91 4.2469e-15
4898.58 4.3845e-15
4901.26 4.606e-15
4903.94 4.439e-15
4906.61 4.3549e-15
4909.29 4.6555e-15
4911.97 4.44e-15
4914.64 4.2097e-15
4917.32 4.1066e-15
4919.99 4.2676e-15
4922.67 4.0521e-15
4925.35 4.2589e-15
4928.02 4.1827e-15
4930.7 4.6238e-15
4933.38 4.4604e-15
4936.05 4.5053e-15
4938.73 4.3675e-15
4941.41 4.4626e-15
4944.08 4.461e-15
4946.76 4.5775e-15
4949.44 4.5262e-15
4952.11 4.6992e-15
4954.79 4.7939e-15
4957.47 5.1737e-15
4960.14 5.3284e-15
4962.82 4.8381e-15
4965.5 4.6367e-15
4968.17 4.4514e-15
4970.85 4.3137e-15
4973.53 4.2769e-15
4976.2 4.5143e-15
4978.88 4.3113e-15
4981.56 4.3239e-15
4984.23 4.2937e-15
4986.91 4.4623e-15
4989.59 3.9982e-15
4992.26 4.5162e-15
4994.94 4.6393e-15
4997.62 4.3884e-15
5000.29 5.0116e-15
5002.97 6.3066e-15
5005.65 7.3294e-15
5008.32 7.4766e-15
5011.0 5.9904e-15
5013.67 4.9131e-15
5016.35 4.2613e-15
5019.03 4.3169e-15
5021.7 4.3638e-15
5024.38 4.3324e-15
5027.06 4.3974e-15
5029.73 4.1976e-15
5032.41 4.4686e-15
5035.09 4.4561e-15
5037.76 4.2937e-15
5040.44 4.3431e-15
5043.12 4.2109e-15
5045.79 4.5727e-15
5048.47 4.5042e-15
5051.15 4.2788e-15
5053.82 4.2569e-15
5056.5 4.4097e-15
5059.18 4.4502e-15
5061.85 4.4654e-15
5064.53 4.0881e-15
5067.21 4.2495e-15
5069.88 4.0029e-15
5072.56 4.3684e-15
5075.24 4.3397e-15
5077.91 4.287e-15
5080.59 4.0499e-15
5083.27 4.3202e-15
5085.94 4.0346e-15
5088.62 4.0998e-15
5091.3 4.2714e-15
5093.97 4.8745e-15
5096.65 4.2783e-15
5099.32 4.0961e-15
5102.0 4.4973e-15
5104.68 4.2959e-15
5107.35 4.3468e-15
5110.03 4.1944e-15
5112.71 4.3266e-15
5115.38 4.4566e-15
5118.06 4.3521e-15
5120.74 4.4025e-15
5123.41 4.3642e-15
5126.09 4.1771e-15
5128.77 4.1591e-15
5131.44 4.2267e-15
5134.12 4.4356e-15
5136.8 4.375e-15
5139.47 4.1129e-15
5142.15 4.2725e-15
5144.83 4.0413e-15
5147.5 4.1126e-15
5150.18 4.2979e-15
5152.86 4.3538e-15
5155.53 4.2758e-15
5158.21 4.2123e-15
5160.89 4.0077e-15
5163.56 3.9751e-15
5166.24 4.113e-15
5168.92 3.3893e-15
5171.59 3.6798e-15
5174.27 3.9135e-15
5176.95 4.0627e-15
5179.62 3.9865e-15
5182.3 3.9435e-15
5184.98 4.1495e-15
5187.65 3.853e-15
5190.33 4.0925e-15
5193.0 4.3887e-15
5195.68 4.2754e-15
5198.36 4.6765e-15
5201.03 4.6396e-15
5203.71 4.3883e-15
5206.39 4.4174e-15
5209.06 4.3932e-15
5211.74 4.6958e-15
5214.42 4.0617e-15
5217.09 4.3873e-15
5219.77 4.0087e-15
5222.45 4.4953e-15
5225.12 4.2278e-15
5227.8 4.2682e-15
5230.48 4.0935e-15
5233.15 4.4731e-15
5235.83 4.3497e-15
5238.51 4.4056e-15
5241.18 4.571e-15
5243.86 4.5992e-15
5246.54 4.2719e-15
5249.21 4.7724e-15
5251.89 4.1864e-15
5254.57 4.5639e-15
5257.24 4.4238e-15
5259.92 4.5533e-15
5262.6 4.2752e-15
5265.27 4.0958e-15
5267.95 3.8687e-15
5270.63 4.274e-15
5273.3 3.9776e-15
5275.98 3.9753e-15
5278.65 4.1766e-15
5281.33 4.3304e-15
5284.01 4.1459e-15
5286.68 4.3513e-15
5289.36 4.8093e-15
5292.04 4.6486e-15
5294.71 4.5965e-15
5297.39 4.4041e-15
5300.07 4.5554e-15
5302.74 4.8266e-15
5305.42 4.8196e-15
5308.1 4.7485e-15
5310.77 4.4335e-15
5313.45 4.3954e-15
5316.13 4.1145e-15
5318.8 4.3954e-15
5321.48 4.3574e-15
5324.16 4.3398e-15
5326.83 4.2311e-15
5329.51 4.1884e-15
5332.19 4.3721e-15
5334.86 4.3253e-15
5337.54 4.4273e-15
5340.22 4.4977e-15
5342.89 4.3833e-15
5345.57 4.3951e-15
5348.25 4.329e-15
5350.92 4.7311e-15
5353.6 4.4904e-15
5356.28 4.6411e-15
5358.95 4.5693e-15
5361.63 4.5815e-15
5364.3 4.5959e-15
5366.98 4.5851e-15
5369.66 4.494e-15
5372.33 4.3887e-15
5375.01 4.23e-15
5377.69 4.3596e-15
5380.36 4.2187e-15
5383.04 4.3728e-15
5385.72 4.6915e-15
5388.39 4.4972e-15
5391.07 4.2595e-15
5393.75 4.5402e-15
5396.42 4.2711e-15
5399.1 4.6546e-15
5401.78 4.3561e-15
5404.45 4.1036e-15
5407.13 4.2514e-15
5409.81 4.2499e-15
5412.48 4.1463e-15
5415.16 4.3189e-15
5417.84 4.2646e-15
5420.51 4.4663e-15
5423.19 4.5876e-15
5425.87 4.0964e-15
5428.54 4.2021e-15
5431.22 4.3456e-15
5433.9 4.2623e-15
5436.57 4.5718e-15
5439.25 4.5019e-15
5441.93 4.6429e-15
5444.6 4.5247e-15
5447.28 4.3716e-15
5449.96 4.4838e-15
5452.63 4.2801e-15
5455.31 4.3733e-15
5457.98 4.5107e-15
5460.66 4.276e-15
5463.34 4.3591e-15
5466.01 4.31e-15
5468.69 4.4802e-15
5471.37 4.5998e-15
5474.04 4.3423e-15
5476.72 4.1968e-15
5479.4 4.5417e-15
5482.07 4.2673e-15
5484.75 4.3632e-15
5487.43 4.736e-15
5490.1 4.7945e-15
5492.78 4.6874e-15
5495.46 4.7307e-15
5498.13 4.4303e-15
5500.81 4.5788e-15
5503.49 4.3319e-15
5506.16 4.4816e-15
5508.84 4.5925e-15
5511.52 4.6177e-15
5514.19 4.4957e-15
5516.87 4.5375e-15
5519.55 4.6461e-15
5522.22 4.7588e-15
5524.9 4.4281e-15
5527.58 4.3976e-15
5530.25 4.2625e-15
5532.93 4.446e-15
5535.61 4.5266e-15
5538.28 4.7173e-15
5540.96 4.4369e-15
5543.63 4.2946e-15
5546.31 4.4916e-15
5548.99 4.8911e-15
5551.66 4.6846e-15
5554.34 4.5253e-15
5557.02 4.5524e-15
5559.69 4.616e-15
5562.37 4.6275e-15
5565.05 4.4146e-15
5567.72 4.5296e-15
5570.4 4.5791e-15
5573.08 4.3838e-15
5575.75 4.2571e-15
5578.43 4.4591e-15
5581.11 4.7238e-15
5583.78 4.3301e-15
5586.46 4.5233e-15
5589.14 4.3583e-15
5591.81 4.2084e-15
5594.49 4.3975e-15
5597.17 4.2728e-15
5599.84 4.3741e-15
5602.52 4.7879e-15
5605.2 4.4375e-15
5607.87 4.2176e-15
5610.55 4.373e-15
5613.23 4.5395e-15
5615.9 4.2778e-15
5618.58 4.5234e-15
5621.26 4.718e-15
5623.93 4.5474e-15
5626.61 4.1811e-15
5629.28 4.2199e-15
5631.96 4.5199e-15
5634.64 4.5316e-15
5637.31 4.3409e-15
5639.99 4.5109e-15
5642.67 4.5415e-15
5645.34 4.551e-15
5648.02 4.5868e-15
5650.7 4.4477e-15
5653.37 4.5339e-15
5656.05 4.7304e-15
5658.73 4.5218e-15
5661.4 4.2228e-15
5664.08 4.1729e-15
5666.76 4.3506e-15
5669.43 4.5455e-15
5672.11 4.4731e-15
5674.79 4.4021e-15
5677.46 4.4351e-15
5680.14 4.5732e-15
5682.82 4.554e-15
5685.49 4.3879e-15
5688.17 4.3477e-15
5690.85 4.4398e-15
5693.52 4.5518e-15
5696.2 4.5342e-15
5698.88 4.3831e-15
5701.55 4.3052e-15
5704.23 4.5361e-15
5706.91 4.5257e-15
5709.58 4.2032e-15
5712.26 4.2846e-15
5714.94 4.3054e-15
5717.61 4.2164e-15
5720.29 4.6909e-15
5722.96 4.372e-15
5725.64 4.3394e-15
5728.32 4.3968e-15
5730.99 4.7984e-15
5733.67 4.6153e-15
5736.35 4.692e-15
5739.02 4.6759e-15
5741.7 4.5658e-15
5744.38 4.5309e-15
5747.05 4.7108e-15
5749.73 4.5114e-15
5752.41 4.7382e-15
5755.08 4.6945e-15
5757.76 4.7108e-15
5760.44 4.2836e-15
5763.11 4.4935e-15
5765.79 4.5494e-15
5768.47 4.3427e-15
5771.14 4.6884e-15
5773.82 4.6345e-15
5776.5 4.786e-15
5779.17 4.525e-15
5781.85 4.4086e-15
5784.53 4.6094e-15
5787.2 4.4268e-15
5789.88 4.3366e-15
5792.56 4.6245e-15
5795.23 4.4856e-15
5797.91 4.4704e-15
5800.59 4.5993e-15
5803.26 4.8187e-15
5805.94 4.7335e-15
5808.61 4.6155e-15
5811.29 4.4579e-15
5813.97 4.6447e-15
5816.64 4.5618e-15
5819.32 4.7975e-15
5822.0 4.4492e-15
5824.67 4.701e-15
5827.35 4.698e-15
5830.03 4.6476e-15
5832.7 4.6815e-15
5835.38 4.5174e-15
5838.06 4.2043e-15
5840.73 4.4556e-15
5843.41 4.5656e-15
5846.09 4.5605e-15
5848.76 4.2952e-15
5851.44 4.9126e-15
5854.12 4.578e-15
5856.79 4.4546e-15
5859.47 4.2615e-15
5862.15 4.5851e-15
5864.82 4.0953e-15
5867.5 4.7135e-15
5870.18 4.4683e-15
5872.85 4.542e-15
5875.53 4.527e-15
5878.21 4.4712e-15
5880.88 4.8239e-15
5883.56 4.4035e-15
5886.24 4.4648e-15
5888.91 4.3322e-15
5891.59 4.0912e-15
5894.26 4.0949e-15
5896.94 3.9818e-15
5899.62 4.1424e-15
5902.29 4.434e-15
5904.97 4.2409e-15
5907.65 4.3852e-15
5910.32 4.2291e-15
5913.0 4.309e-15
5915.68 4.3485e-15
5918.35 4.4157e-15
5921.03 4.4552e-15
5923.71 4.5442e-15
5926.38 4.6526e-15
5929.06 4.3682e-15
5931.74 4.5402e-15
5934.41 4.3875e-15
5937.09 4.4126e-15
5939.77 4.7361e-15
5942.44 4.5752e-15
5945.12 4.63e-15
5947.8 4.709e-15
5950.47 4.4071e-15
5953.15 4.4023e-15
5955.83 4.3251e-15
5958.5 4.3774e-15
5961.18 4.5447e-15
5963.86 4.3258e-15
5966.53 4.506e-15
5969.21 4.4824e-15
5971.89 4.5502e-15
5974.56 4.4977e-15
5977.24 4.5504e-15
5979.92 4.2699e-15
5982.59 4.2657e-15
5985.27 4.5829e-15
5987.94 4.467e-15
5990.62 4.4065e-15
5993.3 4.3902e-15
5995.97 4.3343e-15
5998.65 4.4315e-15
6001.33 4.4701e-15
6004.0 4.5508e-15
6006.68 4.5743e-15
6009.36 4.3525e-15
6012.03 4.6035e-15
6014.71 4.3214e-15
6017.39 4.2448e-15
6020.06 4.3542e-15
6022.74 4.4584e-15
6025.42 4.5005e-15
6028.09 4.5829e-15
6030.77 4.5115e-15
6033.45 4.4157e-15
6036.12 4.5476e-15
6038.8 4.3884e-15
6041.48 4.4916e-15
6044.15 4.587e-15
6046.83 4.6071e-15
6049.51 4.5229e-15
6052.18 4.6092e-15
6054.86 4.4946e-15
6057.54 4.6906e-15
6060.21 4.6677e-15
6062.89 4.5032e-15
6065.57 4.5188e-15
6068.24 4.4302e-15
6070.92 4.3506e-15
6073.59 4.6473e-15
6076.27 4.5085e-15
6078.95 4.6845e-15
6081.62 4.4808e-15
6084.3 4.4918e-15
6086.98 4.5602e-15
6089.65 4.413e-15
6092.33 4.4235e-15
6095.01 4.6957e-15
6097.68 4.2556e-15
6100.36 4.0808e-15
6103.04 4.7175e-15
6105.71 4.5019e-15
6108.39 4.3615e-15
6111.07 4.6084e-15
6113.74 4.5773e-15
6116.42 4.3858e-15
6119.1 4.4282e-15
6121.77 4.4894e-15
6124.45 4.4061e-15
6127.13 3.9515e-15
6129.8 4.7696e-15
6132.48 4.5762e-15
6135.16 4.3482e-15
6137.83 4.4434e-15
6140.51 4.4611e-15
6143.19 4.4824e-15
6145.86 4.5261e-15
6148.54 4.7382e-15
6151.22 4.3325e-15
6153.89 4.5182e-15
6156.57 4.1581e-15
6159.24 4.2055e-15
6161.92 4.1755e-15
6164.6 4.1956e-15
6167.27 4.4202e-15
6169.95 3.9192e-15
6172.63 4.1495e-15
6175.3 4.2029e-15
6177.98 4.4574e-15
6180.66 4.3042e-15
6183.33 4.5939e-15
6186.01 4.3241e-15
6188.69 4.2237e-15
6191.36 4.3404e-15
6194.04 3.9364e-15
6196.72 4.4832e-15
6199.39 4.5512e-15
6202.07 4.4149e-15
6204.75 4.4471e-15
6207.42 4.5095e-15
6210.1 4.4947e-15
6212.78 4.1074e-15
6215.45 4.3624e-15
6218.13 4.1915e-15
6220.81 4.2686e-15
6223.48 4.2299e-15
6226.16 4.4919e-15
6228.84 4.3181e-15
6231.51 4.1594e-15
6234.19 4.4138e-15
6236.87 4.3375e-15
6239.54 4.2567e-15
6242.22 4.2075e-15
6244.9 4.3044e-15
6247.57 4.3068e-15
6250.25 4.2717e-15
6252.92 4.3179e-15
6255.6 4.4589e-15
6258.28 4.4792e-15
6260.95 4.4453e-15
6263.63 4.4653e-15
6266.31 4.5458e-15
6268.98 4.7243e-15
6271.66 4.5904e-15
6274.34 4.2506e-15
6277.01 4.3743e-15
6279.69 4.4159e-15
6282.37 4.3528e-15
6285.04 4.416e-15
6287.72 4.4815e-15
6290.4 4.5585e-15
6293.07 4.5128e-15
6295.75 4.5623e-15
6298.43 4.766e-15
6301.1 5.0812e-15
6303.78 5.0107e-15
6306.46 4.7263e-15
6309.13 4.6448e-15
6311.81 4.5396e-15
6314.49 4.2828e-15
6317.16 4.1533e-15
6319.84 4.3762e-15
6322.52 4.4705e-15
6325.19 4.5368e-15
6327.87 4.1919e-15
6330.55 4.4999e-15
6333.22 4.4189e-15
6335.9 4.2479e-15
6338.57 4.4568e-15
6341.25 4.3263e-15
6343.93 4.4339e-15
6346.6 4.7161e-15
6349.28 4.6851e-15
6351.96 4.8486e-15
6354.63 4.4943e-15
6357.31 4.3249e-15
6359.99 4.2366e-15
6362.66 4.1949e-15
6365.34 4.2468e-15
6368.02 4.3468e-15
6370.69 4.7754e-15
6373.37 4.2455e-15
6376.05 4.3608e-15
6378.72 4.6366e-15
6381.4 4.431e-15
6384.08 4.4209e-15
6386.75 4.5386e-15
6389.43 4.3275e-15
6392.11 4.5819e-15
6394.78 4.203e-15
6397.46 4.0682e-15
6400.14 4.4194e-15
6402.81 4.3711e-15
6405.49 4.5189e-15
6408.17 4.3086e-15
6410.84 4.3264e-15
6413.52 4.1596e-15
6416.2 4.1418e-15
6418.87 4.3352e-15
6421.55 4.555e-15
6424.22 4.4651e-15
6426.9 4.2878e-15
6429.58 4.0996e-15
6432.25 4.5273e-15
6434.93 4.333e-15
6437.61 4.4508e-15
6440.28 4.3418e-15
6442.96 4.3056e-15
6445.64 4.1799e-15
6448.31 4.395e-15
6450.99 4.2944e-15
6453.67 4.4759e-15
6456.34 4.3034e-15
6459.02 4.4959e-15
6461.7 4.5856e-15
6464.37 4.3267e-15
6467.05 4.2129e-15
6469.73 4.1476e-15
6472.4 4.3422e-15
6475.08 4.3105e-15
6477.76 4.3507e-15
6480.43 4.7032e-15
6483.11 4.7665e-15
6485.79 4.4432e-15
6488.46 4.2484e-15
6491.14 4.1977e-15
6493.82 4.0581e-15
6496.49 4.2726e-15
6499.17 4.3492e-15
6501.85 4.1566e-15
6504.52 4.3476e-15
6507.2 4.4021e-15
6509.88 4.3902e-15
6512.55 4.5494e-15
6515.23 4.4781e-15
6517.9 4.6044e-15
6520.58 4.3548e-15
6523.26 4.2305e-15
6525.93 4.2472e-15
6528.61 4.125e-15
6531.29 4.5634e-15
6533.96 4.4166e-15
6536.64 4.43e-15
6539.32 4.6658e-15
6541.99 4.6857e-15
6544.67 5.0694e-15
6547.35 5.6072e-15
6550.02 5.8839e-15
6552.7 5.7098e-15
6555.38 5.9129e-15
6558.05 7.9887e-15
6560.73 1.0837e-14
6563.41 1.174e-14
6566.08 9.8119e-15
6568.76 6.6077e-15
6571.44 5.5891e-15
6574.11 5.281e-15
6576.79 5.5175e-15
6579.47 6.7159e-15
6582.14 7.3821e-15
6584.82 8.4288e-15
6587.5 7.6241e-15
6590.17 5.851e-15
6592.85 5.2177e-15
6595.53 4.5775e-15
6598.2 4.6061e-15
6600.88 4.7316e-15
6603.55 4.6493e-15
6606.23 4.4984e-15
6608.91 4.6786e-15
6611.58 4.6338e-15
6614.26 4.6613e-15
6616.94 4.2827e-15
6619.61 4.4318e-15
6622.29 4.4097e-15
6624.97 4.4205e-15
6627.64 4.4569e-15
6630.32 4.3293e-15
6633.0 4.4763e-15
6635.67 4.3396e-15
6638.35 4.6448e-15
6641.03 4.4659e-15
6643.7 4.8153e-15
6646.38 4.8174e-15
6656.49 4.4374e-15
6671.83 4.2853e-15
6687.21 4.2937e-15
6702.63 4.2823e-15
6718.08 4.3105e-15
6733.57 4.2793e-15
6749.09 4.2582e-15
6764.65 4.3359e-15
6780.24 4.3244e-15
6795.87 4.3129e-15
6811.54 4.2916e-15
6827.24 4.2901e-15
6842.98 4.3183e-15
6858.75 4.238e-15
6874.56 4.2267e-15
6890.41 4.129e-15
6906.3 4.214e-15
6922.22 4.2222e-15
6938.17 4.2992e-15
6954.17 4.268e-15
6970.2 4.3159e-15
6986.27 4.0918e-15
7002.37 4.3028e-15
7018.52 4.2618e-15
7034.69 4.231e-15
7050.91 4.3983e-15
7067.17 4.1032e-15
7083.46 4.2263e-15
7099.78 4.0346e-15
7116.15 4.0517e-15
7132.56 4.0131e-15
7149.0 4.0301e-15
7165.48 4.0472e-15
7182.0 3.9445e-15
7198.55 3.8004e-15
7215.15 3.7903e-15
7231.78 4.0412e-15
7248.45 4.0211e-15
7265.16 4.1608e-15
7281.91 4.018e-15
7298.69 3.8446e-15
7315.52 4.0521e-15
7332.39 4.088e-15
7349.29 4.2988e-15
7366.23 4.1897e-15
7383.21 4.2463e-15
7400.23 4.2058e-15
7417.29 4.1465e-15
7434.39 4.3302e-15
7451.53 4.2009e-15
7468.7 4.1037e-15
7485.92 4.2855e-15
7503.18 4.1289e-15
7520.47 4.2429e-15
7537.81 4.251e-15
7555.19 4.2886e-15
7572.6 4.2476e-15
7590.06 4.2557e-15
7607.55 4.1285e-15
7625.1 4.0796e-15
7642.67 4.1252e-15
7660.29 4.0483e-15
7677.95 3.9455e-15
7695.65 3.9987e-15
7713.39 3.9787e-15
7731.17 3.968e-15
7748.99 3.9391e-15
7766.85 3.9103e-15
7784.76 3.8997e-15
7802.71 3.9433e-15
7820.69 3.9873e-15
7838.72 3.877e-15
7856.79 3.9748e-15
7874.9 4.0192e-15
7893.06 3.9715e-15
7911.25 3.9244e-15
7929.49 3.86e-15
7947.77 3.7706e-15
7966.09 3.8214e-15
7984.45 3.9178e-15
8002.86 3.8094e-15
8021.31 3.9416e-15
8039.8 3.9856e-15
8058.33 3.9292e-15
8076.91 3.8558e-15
8095.53 3.9168e-15
8114.19 3.8882e-15
8132.9 3.9679e-15
8151.65 3.8581e-15
8170.44 3.5496e-15
8189.27 3.7496e-15
8208.15 3.6711e-15
8227.07 3.9049e-15
8246.04 3.9122e-15
8265.04 3.7777e-15
8284.1 3.6901e-15
8303.19 3.7312e-15
8322.33 3.8164e-15
8341.52 3.6682e-15
8360.75 3.866e-15
8380.02 3.8113e-15
8399.34 3.6972e-15
8418.7 3.8078e-15
8438.11 3.8502e-15
8457.56 3.6584e-15
8477.06 3.4841e-15
8496.6 3.7316e-15
8516.19 3.7127e-15
8535.82 3.6182e-15
8555.5 3.179e-15
8575.22 3.7162e-15
8594.99 3.6719e-15
8614.8 3.6199e-15
8634.66 3.711e-15
8654.56 3.6584e-15
8674.52 3.0136e-15
8694.51 3.5718e-15
8714.55 3.6281e-15
8734.65 3.7109e-15
8754.78 3.6163e-15
8774.96 3.5898e-15
8795.19 3.7227e-15
8815.47 3.2483e-15
8835.79 3.6095e-15
8856.16 3.6161e-15
8876.57 3.3039e-15
8897.03 3.5141e-15
8917.54 3.5613e-15
8938.1 3.4706e-15
8958.7 3.4529e-15
8979.36 3.3649e-15
9000.06 2.9564e-15
9020.8 3.1663e-15
9041.6 3.6169e-15
9062.44 3.6824e-15
9083.33 3.4507e-15
9104.27 3.4809e-15
9125.26 3.5114e-15
9146.3 3.1788e-15
9167.38 3.2965e-15
9188.51 3.3949e-15
9209.7 3.4963e-15
9230.92 3.4466e-15
9252.2 3.3587e-15
9273.54 3.4273e-15
9294.91 3.2714e-15
9316.34 3.4955e-15
9337.82 3.5018e-15
9359.34 3.492e-15
9380.91 3.4822e-15
9402.54 3.4168e-15
9424.22 3.4946e-15
9445.94 3.4528e-15
9467.71 3.5071e-15
9489.54 3.5053e-15
9511.42 3.4316e-15
9533.34 3.4298e-15
9555.32 3.3116e-15
9577.35 3.4105e-15
9599.42 3.472e-15
9621.55 3.4463e-15
9643.73 3.4051e-15
9665.96 3.3954e-15
9688.25 3.4329e-15
9710.58 3.384e-15
9732.97 3.3512e-15
9755.4 3.334e-15
9777.89 3.3398e-15
9800.43 3.2998e-15
9823.03 3.3362e-15
9845.67 3.3421e-15
9868.37 3.3173e-15
9891.11 3.3155e-15
9913.91 3.2833e-15
9936.77 3.3042e-15
9959.68 3.3024e-15
9982.64 3.2854e-15
10028.71 3.2591e-15
10075.0 3.2108e-15
10121.51 3.2593e-15
10168.23 3.2258e-15
10215.16 3.2295e-15
10285.97 3.2314e-15
10309.68 3.2073e-15
10501.35 3.1048e-15
10696.58 2.9788e-15
10895.45 2.871e-15
11098.02 2.7672e-15
11304.34 2.7042e-15
11488.02 2.6856e-15
11701.6 2.6064e-15
11891.73 2.5179e-15
12112.81 2.4662e-15
12309.64 2.4268e-15
12509.66 2.3607e-15
12712.92 2.3069e-15
12889.78 2.2544e-15
13099.22 2.2133e-15
13312.06 2.153e-15
13497.25 2.1088e-15
13685.01 2.0703e-15
13907.38 2e-15
14100.84 1.9233e-15
14297.0 1.8969e-15
14495.9 1.9012e-15
14697.56 1.8409e-15
14902.02 1.858e-15
15109.33 1.8622e-15
15284.29 1.8881e-15
15496.92 1.8708e-15
15712.5 1.8409e-15
15894.43 1.7784e-15
16115.55 1.7866e-15
16302.16 1.7784e-15
16490.94 1.75e-15
16681.9 1.734e-15
16913.95 1.7023e-15
17109.81 1.6674e-15
17307.93 1.6034e-15
17508.36 1.5561e-15
17711.1 1.4964e-15
17916.17 1.4422e-15
18081.95 1.3773e-15
18291.33 1.3429e-15
18503.12 1.3003e-15
18717.38 1.2446e-15
18890.58 1.2135e-15
19109.33 1.1913e-15
19286.13 1.1536e-15
19509.46 1.1093e-15
19689.99 1.079e-15
19917.97 1.0472e-15
20102.28 1.0281e-15
20288.27 9.9549e-16
20523.2 9.8183e-16
20713.11 9.5727e-16
20904.75 9.3764e-16
21098.19 9.2053e-16
21293.42 9.0165e-16
21490.43 8.8315e-16
21689.29 8.5514e-16
21889.98 8.4147e-16
22092.52 8.1853e-16
22296.94 7.9623e-16
22503.24 7.8015e-16
22711.47 7.5934e-16
22921.63 6.8817e-16
23080.5 6.8216e-16
23294.07 6.0415e-16
23509.59 5.7202e-16
23727.14 5.79e-16
23891.59 5.3565e-16
24112.67 5.2017e-16
24279.8 5.1446e-16
24504.47 4.8264e-16
24674.31 4.7515e-16
24902.63 4.1031e-16
24977.52 3.7e-16
25071.63 3.8261e-16
25165.85 3.9855e-16
25260.06 4.1583e-16
25354.18 4.1457e-16
25448.4 4.1938e-16
25542.61 4.2745e-16
25636.73 4.2691e-16
25730.95 4.2852e-16
25825.06 4.1953e-16
25919.28 4.0862e-16
26013.49 3.9198e-16
26107.61 3.914e-16
26201.83 3.97e-16
26295.94 4.0802e-16
26390.16 3.9695e-16
26484.37 3.8655e-16
26578.49 3.7517e-16
26672.71 3.669e-16
26766.92 3.6585e-16
26861.04 3.547e-16
26955.26 3.5413e-16
27049.37 3.4336e-16
27143.59 3.4793e-16
27237.81 3.4151e-16
27331.92 3.3879e-16
27426.14 3.2998e-16
27520.35 3.1758e-16
27614.47 3.0436e-16
27708.68 3.0922e-16
27802.8 3.4181e-16
27897.02 3.4913e-16
27991.23 3.5098e-16
28085.35 3.2604e-16
28179.57 3.1567e-16
28273.78 3.0306e-16
28367.9 2.9968e-16
28462.11 3.0134e-16
28556.23 3.0493e-16
28650.45 3.0217e-16
28744.66 3.0548e-16
28838.78 2.9561e-16
28933.0 2.8942e-16
29027.21 2.6923e-16
29121.33 2.6886e-16
29215.54 2.5493e-16
29309.66 2.6055e-16
29403.87 2.5838e-16
29498.09 2.5812e-16
29592.21 2.4964e-16
29686.42 2.3296e-16
29780.64 2.2383e-16
29874.75 2.1975e-16
29968.97 2.1873e-16
30063.09 2.2773e-16
30157.3 2.1231e-16
30251.52 2.1115e-16
30345.64 1.971e-16
30439.85 2.131e-16
30534.07 2.3165e-16
30628.19 2.551e-16
30722.4 2.6688e-16
30816.52 2.6147e-16
30910.73 2.397e-16
31004.95 2.2421e-16
31099.07 1.9171e-16
31193.28 1.9001e-16
31287.5 1.8531e-16
31381.62 1.9674e-16
31475.83 1.9926e-16
31569.95 2.0188e-16
31664.16 2.1022e-16
31758.38 2.1242e-16
31852.5 2.1004e-16
31946.71 2.1903e-16
32040.93 2.3836e-16
32135.04 2.4534e-16
32229.26 2.6117e-16
32323.38 2.7275e-16
32417.59 3.0563e-16
32511.81 3.1355e-16
32605.92 3.4246e-16
32700.14 3.6518e-16
32794.36 3.7044e-16
32888.47 3.525e-16
32982.69 3.2631e-16
33076.81 3.1138e-16
33171.02 3.0175e-16
33265.23 2.8857e-16
33359.35 2.6964e-16
33453.57 2.4667e-16
33547.78 2.3296e-16
33641.9 2.2898e-16
33736.12 2.2044e-16
33830.24 2.2453e-16
33924.45 2.1535e-16
34018.66 2.2135e-16
34112.78 2.1037e-16
34207.0 2.2633e-16
34301.21 2.2001e-16
34395.33 2.0944e-16
34489.55 1.9722e-16
34583.66 1.9951e-16
34677.88 2.1216e-16
34772.09 2.2686e-16
34866.21 2.3244e-16
34960.42 2.4349e-16
35054.64 2.3127e-16
35148.76 2.2223e-16
35242.97 2.2271e-16
35337.09 2.2623e-16
35431.31 2.07e-16
35525.52 1.8532e-16
35619.64 1.7271e-16
35713.85 1.8451e-16
35808.07 2.0152e-16
35902.19 2.1172e-16
35996.4 2.1404e-16
36090.52 1.9163e-16
36184.74 1.7938e-16
36278.95 1.703e-16
36373.07 1.6722e-16
36467.28 1.7115e-16
36561.5 1.7929e-16
36655.62 1.976e-16
36749.83 1.9854e-16
36843.95 1.9701e-16
36938.17 1.8172e-16
37032.38 1.7269e-16
37126.5 1.6348e-16
37220.71 1.6518e-16
37314.93 1.7347e-16
37409.04 1.7025e-16
37503.26 1.643e-16
37597.38 1.4498e-16
37691.59 1.4005e-16
37785.81 1.394e-16
37879.93 1.4557e-16
37974.14 1.5736e-16
38068.36 1.6039e-16
38162.47 1.595e-16
38256.69 1.5696e-16
38350.81 1.4831e-16
38445.02 1.3773e-16
38539.24 1.1675e-16
38633.36 1.1093e-16
38727.57 1.1164e-16
38821.78 1.2841e-16
38915.9 1.3675e-16
39010.12 1.3969e-16
39104.24 1.3396e-16
39198.45 1.265e-16
39292.67 1.2186e-16
39386.79 1.2999e-16
39481.0 1.4979e-16
39575.21 1.6928e-16
39669.33 1.7141e-16
39763.55 1.732e-16
39857.66 1.7913e-16
39951.88 1.7461e-16
40046.1 1.65e-16
40140.21 1.4924e-16
40234.43 1.4236e-16
40328.64 1.4392e-16
40422.76 1.5123e-16
40516.97 1.6414e-16
40611.09 1.6227e-16
40705.31 1.5272e-16
40799.52 1.3532e-16
40893.64 1.2528e-16
40987.86 1.2323e-16
41082.07 1.2225e-16
41176.19 1.1855e-16
41270.41 1.1891e-16
41364.52 1.2117e-16
41458.74 1.2717e-16
41552.95 1.2846e-16
41647.07 1.3958e-16
41741.29 1.4277e-16
41835.5 1.4564e-16
41929.62 1.3822e-16
42023.83 1.3475e-16
42117.95 1.2674e-16
42212.17 1.247e-16
42306.38 1.2444e-16
42400.5 1.2418e-16
42494.71 1.2722e-16
42588.93 1.2799e-16
42683.05 1.3353e-16
42777.27 1.2886e-16
42871.38 1.2939e-16
42965.6 1.2086e-16
43059.81 1.2333e-16
43153.93 1.2295e-16
43248.14 1.2706e-16
43342.36 1.3293e-16
43436.48 1.3459e-16
43530.69 1.3812e-16
43624.81 1.342e-16
43719.02 1.2357e-16
43813.24 1.1551e-16
43907.36 1.135e-16
44001.57 1.2289e-16
44095.79 1.1958e-16
44189.9 1.1362e-16
44284.12 1.1133e-16
44378.24 1.2345e-16
44472.46 1.2253e-16
44566.67 1.1943e-16
44660.79 1.1415e-16
44755.0 1.0951e-16
44849.22 1.0028e-16
44943.33 9.6157e-17
45037.55 9.2268e-17
45131.67 8.5559e-17
45225.88 7.4494e-17
45320.1 7.0462e-17
45414.21 7.3806e-17
45508.43 9.1648e-17
45602.65 1.0008e-16
45696.76 1.0512e-16
45790.98 1.0406e-16
45885.19 1.0108e-16
45979.31 9.8669e-17
46073.52 9.6971e-17
46167.65 1.1551e-16
46261.86 1.2625e-16
46356.08 1.2329e-16
46450.19 1.0043e-16
46544.41 9.7217e-17
46638.53 9.9866e-17
46732.74 1.0743e-16
46827.93 9.9294e-17
47296.21 1.0087e-16
47769.17 1.0247e-16
48246.86 1.0408e-16
48729.33 1.057e-16
49216.63 1.0735e-16
49708.79 1.09e-16
50205.88 1.1068e-16
50707.94 1.1237e-16
51215.02 1.1408e-16
51727.17 1.1581e-16
51932.9 1.165e-16
52234.47 1.4587e-16
52536.06 1.3644e-16
52837.64 1.3788e-16
53139.21 1.362e-16
53440.79 1.4181e-16
53742.38 1.2709e-16
54043.95 9.2639e-17
54345.53 1.0386e-16
54647.11 1.2285e-16
54948.7 1.548e-16
55250.27 1.248e-16
55551.86 1.2423e-16
55853.44 1.4013e-16
56155.01 1.5916e-16
56456.58 1.7656e-16
56758.17 1.6506e-16
57059.76 1.7417e-16
57361.33 1.9686e-16
57662.91 1.8052e-16
57964.49 1.426e-16
58266.07 1.2466e-16
58567.65 1.2696e-16
58869.23 1.3093e-16
59170.81 1.3018e-16
59472.39 1.3123e-16
59773.97 1.4398e-16
60075.55 1.6362e-16
60377.12 1.7872e-16
60678.71 1.8914e-16
60980.28 2.2376e-16
61281.86 2.7313e-16
61583.44 4.0193e-16
61885.02 4.5425e-16
62186.61 4.6322e-16
62488.18 3.7324e-16
62789.76 3.7938e-16
63091.35 2.9998e-16
63392.92 2.3547e-16
63694.5 2.4467e-16
63996.09 2.3744e-16
64297.66 1.8207e-16
64599.23 1.8021e-16
64900.83 1.7493e-16
65202.4 1.7566e-16
65503.97 1.7197e-16
65805.56 1.8695e-16
66107.14 2.118e-16
66408.72 1.8888e-16
66710.3 1.8451e-16
67011.88 1.7103e-16
67313.46 2.0613e-16
67615.03 1.2849e-16
67916.62 1.758e-16
68218.19 1.6312e-16
68519.77 1.7901e-16
68821.36 1.9323e-16
69122.93 2.5758e-16
69424.51 2.4219e-16
69726.1 2.8284e-16
70027.67 2.8259e-16
70329.26 2.3418e-16
70630.83 2.3427e-16
70932.41 2.355e-16
71234.0 2.4548e-16
71535.57 2.2594e-16
71837.15 2.454e-16
72138.73 2.3308e-16
72440.31 2.5211e-16
72741.89 2.6962e-16
73043.46 2.8777e-16
73325.31 2.9561e-16
73345.05 3.463e-16
73646.63 3.5262e-16
73929.66 3.5027e-16
73948.2 3.7569e-16
74534.02 4.1251e-16
75138.38 4.999e-16
75742.74 5.636e-16
76347.1 5.7061e-16
76951.47 5.4237e-16
77555.83 5.3463e-16
78160.18 5.1241e-16
78764.55 4.7952e-16
79368.91 4.1763e-16
79973.27 3.7687e-16
80577.63 2.5185e-16
81181.99 2.8856e-16
81786.36 2.6705e-16
82390.72 2.517e-16
82995.08 2.5257e-16
83599.44 3.0041e-16
84203.81 2.4381e-16
84808.16 2.3504e-16
85412.52 2.5763e-16
86016.88 2.4562e-16
86621.24 2.2098e-16
87225.6 1.8813e-16
87829.96 1.5171e-16
88434.32 1.275e-16
89038.69 1.1278e-16
89643.05 9.2583e-17
90247.41 8.612e-17
90851.77 7.8009e-17
91456.13 7.5218e-17
92060.49 6.8492e-17
92664.84 6.5907e-17
93269.21 6.4356e-17
93873.57 5.8499e-17
94477.93 5.8172e-17
95082.3 6.2329e-17
95686.66 5.5128e-17
96291.02 7.8197e-17
96895.38 8.2685e-17
97499.7 5.3538e-17
98104.11 4.8767e-17
98708.43 5.0795e-17
99312.85 5.0476e-17
99917.17 4.7081e-17
100521.58 4.7592e-17
101125.92 4.9693e-17
101730.23 5.3731e-17
102334.64 4.9975e-17
102938.96 5.0779e-17
103543.39 4.9675e-17
104147.71 5.2839e-17
104752.02 5.7679e-17
105356.44 6.572e-17
105960.77 6.481e-17
106565.18 6.5423e-17
107169.49 5.7103e-17
107773.91 6.79e-17
108378.24 6.637e-17
108982.56 7.1565e-17
109586.97 8.4095e-17
110191.29 9.573e-17
110795.71 1.2007e-16
111400.03 1.5689e-16
112004.44 2.5242e-16
112608.76 2.794e-16
113213.08 2.4388e-16
113817.51 1.987e-16
114421.82 1.66e-16
115026.23 1.4475e-16
115630.55 1.2909e-16
116234.98 1.2081e-16
116839.3 1.1512e-16
117443.61 1.1508e-16
118048.04 1.2101e-16
118652.36 1.2668e-16
119256.77 1.3533e-16
119861.09 1.3961e-16
120465.42 1.4203e-16
121069.83 1.4052e-16
121674.15 1.4614e-16
122278.56 1.5744e-16
122882.89 1.7331e-16
123487.3 1.6636e-16
124091.63 1.6609e-16
124695.94 1.7647e-16
125300.36 1.8496e-16
125904.68 1.9118e-16
126509.1 2.0219e-16
127113.41 2.183e-16
127717.73 2.6274e-16
128322.15 2.9222e-16
128926.48 1.8559e-16
129530.89 1.5432e-16
130135.2 1.5014e-16
130739.62 1.4825e-16
131343.95 1.4832e-16
131948.27 1.4928e-16
132552.69 1.4767e-16
133157.0 1.494e-16
133761.42 1.5135e-16
134365.74 1.5156e-16
134970.16 1.5056e-16
135574.47 1.5357e-16
136178.8 1.5383e-16
136783.22 1.5353e-16
137387.54 1.5497e-16
137991.94 1.469e-16
138596.27 1.4089e-16
139200.69 1.4329e-16
139805.01 1.3539e-16
140409.32 1.327e-16
141013.76 1.3052e-16
141533.79 1.4943e-16
142426.19 1.5402e-16
143318.7 1.523e-16
144211.13 1.4852e-16
145103.53 1.4551e-16
145995.95 1.4064e-16
146888.47 1.4504e-16
147780.89 1.4666e-16
148673.3 1.479e-16
149565.81 1.3399e-16
150458.23 1.4039e-16
151350.64 1.358e-16
152243.06 1.368e-16
153135.57 1.3521e-16
154027.99 1.3534e-16
154920.4 1.4311e-16
155812.91 1.251e-16
156705.34 1.2529e-16
157597.74 1.3277e-16
158490.26 1.3125e-16
159382.68 1.3074e-16
160275.08 1.286e-16
161167.51 1.2816e-16
162060.03 1.29e-16
162952.42 1.3311e-16
163844.85 1.4343e-16
164737.27 1.5581e-16
165629.78 1.4539e-16
166522.2 1.4278e-16
167414.62 1.5322e-16
168307.14 1.567e-16
169199.54 1.5373e-16
170091.97 1.5963e-16
170984.48 1.8413e-16
171876.89 1.46e-16
172769.31 1.4733e-16
173661.71 1.4885e-16
174554.23 1.3972e-16
175446.65 1.3772e-16
176339.06 1.3061e-16
177231.57 1.3843e-16
178123.99 1.381e-16
179016.4 1.3721e-16
179908.91 1.309e-16
180801.33 1.3071e-16
181693.75 1.305e-16
182586.16 1.3152e-16
183478.67 1.3915e-16
184371.09 1.361e-16
185263.5 1.7122e-16
186156.03 1.5155e-16
187048.45 1.5752e-16
187940.84 1.5356e-16
188833.26 1.518e-16
189725.79 1.5274e-16
190618.2 1.5744e-16
191510.62 1.5414e-16
192403.13 1.6415e-16
193295.54 1.659e-16
194187.96 1.6827e-16
195080.38 1.875e-16
195972.9 1.7552e-16
196865.3 2.1682e-16
197757.73 1.9484e-16
198650.24 1.9882e-16
200063.47 1.9293e-16
201771.59 2.384e-16
203480.69 2.3594e-16
205190.79 2.1668e-16
206901.74 2.501e-16
208613.57 2.5533e-16
210326.38 2.4381e-16
212040.08 2.634e-16
213754.72 2.9547e-16
215470.36 2.7688e-16
217186.86 2.6737e-16
218904.34 2.9867e-16
220622.7 3.1997e-16
222342.01 3.1102e-16
224062.31 2.9861e-16
225783.5 3.1609e-16
227505.65 3.3567e-16
229228.79 3.4219e-16
230952.78 3.3847e-16
232677.86 3.457e-16
234403.71 3.7217e-16
236130.61 3.8913e-16
237858.52 3.9321e-16
239587.29 3.9686e-16
241317.02 4.1904e-16
243047.74 4.3983e-16
244779.33 4.6e-16
246511.99 4.6417e-16
248245.54 4.737e-16
249980.15 4.9245e-16
251715.62 5.1681e-16
253452.1 5.2968e-16
255189.53 5.4602e-16
256927.93 5.489e-16
258667.3 5.6418e-16
260407.67 5.82e-16
262148.99 5.861e-16
263891.28 6.1068e-16
265634.55 6.2131e-16
267378.79 6.2458e-16
269124.12 6.2788e-16
270870.31 6.4247e-16
272617.47 6.6547e-16
274365.69 6.873e-16
276114.92 6.8587e-16
277865.0 6.9947e-16
279616.14 7.0825e-16
281368.29 7.322e-16
283121.5 7.4657e-16
284875.65 7.7025e-16
286630.72 7.6317e-16
288386.91 7.8707e-16
290144.02 7.9738e-16
291902.15 8.1399e-16
293661.3 8.0064e-16
295421.41 8.5088e-16
297182.59 8.3859e-16
298944.75 8.6935e-16
300707.87 8.6169e-16
302472.06 9.0302e-16
304237.35 8.9442e-16
306003.58 8.8564e-16
307770.81 9.2181e-16
309538.99 9.6572e-16
311308.35 9.4024e-16
313078.59 9.4355e-16
314849.96 9.8059e-16
316622.25 1.1693e-15
318395.68 9.8375e-16
320170.12 9.6325e-16
321945.48 9.7452e-16
323721.96 9.7574e-16
325499.5 9.5658e-16
327278.08 1.0196e-15
329057.69 9.6099e-16
330838.31 8.8643e-16
332619.93 8.7671e-16
334402.64 9.9769e-16
336186.51 1.0135e-15
337971.23 1.053e-15
339757.14 1.0715e-15
