# col1 col2
# An Atlas of Galaxy Spectral Energy Distributions from the Ultraviolet to the Mid-Infrared
# Brown et al. (2014)
# http://dx.doi.org/10.5072/03/529D3551F0117
# 
# Column 1 : Restframe Wavelength (Angstrom)
# Column 2 : Flux per unit wavelength (ergs/s/cm^2/Angstrom)
# Column 3 : Observed wavelength (Angstrom)
# Column 4 : Source (0 = model, 1 = Optical Spectrum, 2 = Akari, 3 = Spitzer IRS)
# 
102.0 1.8779e-23
103.9 2.4466e-23
106.07 3.2617e-23
108.04 4.4396e-23
110.05 6.8585e-23
113.92 1.1041e-22
117.92 1.655e-22
120.95 7.2381e-22
124.91 1.0032e-21
126.94 1.1358e-21
128.11 1.2337e-21
131.1 1.4624e-21
132.01 1.7783e-21
134.15 1.9629e-21
136.96 2.6775e-21
140.15 3.1086e-21
143.09 9.0865e-21
147.1 2.2345e-20
150.87 2.6119e-20
155.1 3.0671e-20
159.07 3.6017e-20
162.03 4.0118e-20
166.19 4.6893e-20
170.06 5.3444e-20
172.82 5.9121e-20
176.85 6.6914e-20
180.14 7.3002e-20
181.8 7.7311e-20
186.04 8.6498e-20
190.81 9.9024e-20
193.91 1.0779e-19
197.97 1.1867e-19
202.12 1.3125e-19
204.93 1.4091e-19
210.18 1.5054e-19
216.07 1.7837e-19
220.09 1.9503e-19
223.15 2.0461e-19
226.78 2.227e-19
229.93 3.2252e-19
234.21 4.9467e-19
240.21 6.486e-19
245.81 6.4515e-19
252.12 7.2662e-19
256.8 6.3833e-19
259.78 7.5662e-19
264.0 8.1779e-19
268.91 8.499e-19
273.9 8.7515e-19
279.0 9.0323e-19
284.18 9.3434e-19
290.13 9.272e-19
296.21 9.7461e-19
301.02 9.8301e-19
308.03 1.0355e-18
318.13 1.1056e-18
327.79 1.1562e-18
337.75 1.1898e-18
348.02 1.2215e-18
356.94 1.2601e-18
366.1 1.327e-18
374.63 1.3471e-18
385.12 1.3237e-18
395.0 1.4166e-18
405.13 1.4848e-18
413.62 1.4934e-18
422.28 1.4815e-18
430.13 1.4833e-18
441.16 1.5332e-18
451.44 1.5418e-18
459.83 1.519e-18
469.46 1.5346e-18
480.4 1.5789e-18
490.46 1.5339e-18
499.57 1.6116e-18
506.52 1.7253e-18
512.39 3.7891e-18
519.52 4.0283e-18
530.39 4.3003e-18
540.26 4.1873e-18
550.3 6.2712e-18
560.53 7.6166e-18
569.64 8.9585e-18
580.23 8.563e-18
589.66 1.13e-17
600.62 1.2259e-17
610.38 1.5062e-17
620.3 1.735e-17
630.38 1.9441e-17
640.62 1.9504e-17
649.53 2.31e-17
658.57 2.5768e-17
664.66 2.721e-17
675.46 2.7233e-17
684.86 2.7387e-17
694.38 3.7496e-17
705.67 3.6419e-17
715.48 4.393e-17
725.44 4.6257e-17
735.53 4.8706e-17
745.76 5.6883e-17
754.4 6.1869e-17
764.89 6.6813e-17
775.53 7.366e-17
784.51 8.0668e-17
795.42 8.4539e-17
804.64 8.9231e-17
815.83 9.308e-17
825.28 1.0382e-16
834.83 8.2553e-17
844.5 1.1019e-16
854.28 1.1391e-16
864.17 1.2445e-16
874.18 1.3533e-16
884.3 1.499e-16
894.54 1.5966e-16
904.9 1.5724e-16
915.38 2.685e-16
925.98 2.1843e-15
934.54 4.873e-15
945.36 9.5753e-15
954.11 1.4178e-14
965.16 1.479e-14
974.09 2.0018e-15
985.37 1.0684e-14
994.49 1.2624e-14
1006.0 2.0822e-14
1015.31 2.0795e-14
1024.71 9.1282e-15
1034.19 1.3177e-14
1046.16 2.8516e-14
1055.84 2.8022e-14
1065.61 2.046e-14
1075.47 2.5605e-14
1085.42 1.8738e-14
1095.47 2.7422e-14
1105.6 2.6332e-14
1115.83 2.4596e-14
1126.16 2.1589e-14
1133.96 2.9838e-14
1144.46 2.6554e-14
1155.05 2.9072e-14
1165.73 2.9911e-14
1173.81 1.9113e-14
1184.67 2.9018e-14
1195.64 1.7742e-14
1203.92 1.1521e-14
1215.06 9.2003e-15
1226.31 1.9503e-14
1234.81 3.1812e-14
1246.23 3.5147e-14
1254.87 3.276e-14
1263.57 2.7153e-14
1275.26 3.7419e-14
1284.1 3.9678e-14
1295.98 2.8629e-14
1304.97 2.8265e-14
1314.01 3.808e-14
1326.17 3.597e-14
1335.36 3.0225e-14
1344.62 3.8707e-14
1353.94 3.7257e-14
1366.47 3.2094e-14
1375.94 3.4343e-14
1385.48 3.4693e-14
1395.08 2.976e-14
1404.75 3.0977e-14
1414.49 3.1291e-14
1424.29 3.2795e-14
1434.16 3.2299e-14
1440.79 3.4576e-14
1447.44 3.5347e-14
1454.12 3.3879e-14
1464.2 3.057e-14
1474.35 3.0666e-14
1484.56 3.1551e-14
1494.86 3.2238e-14
1505.22 2.9972e-14
1512.16 2.5839e-14
1515.65 2.8317e-14
1526.16 2.7001e-14
1536.74 2.2684e-14
1543.83 2.5779e-14
1554.53 2.4187e-14
1565.31 2.4541e-14
1576.16 2.6194e-14
1583.43 2.7909e-14
1594.41 2.8317e-14
1605.46 2.7947e-14
1616.59 2.8224e-14
1624.05 2.6311e-14
1635.31 2.8407e-14
1646.64 2.8754e-14
1654.24 2.6315e-14
1665.71 2.9005e-14
1673.4 2.5233e-14
1677.26 2.8756e-14
1685.0 3.0495e-14
1696.68 2.841e-14
1704.51 2.6975e-14
1716.32 2.49e-14
1724.25 2.4757e-14
1736.2 2.6663e-14
1744.21 2.5965e-14
1756.3 2.7965e-14
1764.41 2.5298e-14
1776.64 2.5721e-14
1784.84 2.6409e-14
1793.08 2.8459e-14
1805.51 2.834e-14
1813.84 2.5402e-14
1826.41 2.6184e-14
1834.84 2.4974e-14
1843.31 2.2591e-14
1856.09 2.2289e-14
1864.66 2.3042e-14
1873.27 2.5761e-14
1886.25 2.3126e-14
1894.96 2.1905e-14
1903.7 2.3657e-14
1916.9 2.2289e-14
1925.75 2.1953e-14
1934.64 2.3063e-14
1943.56 2.3622e-14
1957.04 2.1798e-14
1966.07 2.4368e-14
1975.15 2.519e-14
1984.26 2.3422e-14
1993.42 2.2595e-14
2007.24 2.3609e-14
2016.5 2.2411e-14
2025.81 2.3924e-14
2035.16 2.2091e-14
2044.56 2.3099e-14
2053.99 2.1926e-14
2063.47 2.1995e-14
2073.0 2.3642e-14
2077.78 2.1845e-14
2087.37 2.2893e-14
2097.0 2.1432e-14
2106.68 2.1697e-14
2116.41 2.1865e-14
2126.18 2.2186e-14
2135.99 2.0532e-14
2145.85 2.0833e-14
2155.75 2.1831e-14
2165.7 2.1155e-14
2175.7 2.088e-14
2185.74 2.0139e-14
2195.83 2.1201e-14
2205.97 2.0543e-14
2216.15 1.9542e-14
2226.38 1.8667e-14
2236.66 1.9829e-14
2246.98 1.8936e-14
2257.35 1.8125e-14
2262.55 1.8718e-14
2273.0 1.9153e-14
2283.49 1.9554e-14
2294.03 1.8459e-14
2304.62 1.8247e-14
2315.26 1.7265e-14
2325.94 1.3066e-14
2336.68 1.6075e-14
2347.46 1.5853e-14
2352.88 1.6792e-14
2363.74 1.5599e-14
2374.65 1.5925e-14
2385.61 1.4999e-14
2396.62 1.6034e-14
2407.68 1.5241e-14
2413.23 1.5596e-14
2424.37 1.6217e-14
2435.56 1.5487e-14
2446.8 1.6403e-14
2452.44 1.6066e-14
2463.76 1.5992e-14
2475.14 1.5412e-14
2486.56 1.6064e-14
2492.29 1.4991e-14
2503.8 1.6437e-14
2515.35 1.4955e-14
2526.96 1.4817e-14
2532.79 1.4919e-14
2544.48 1.4478e-14
2556.23 1.53e-14
2562.12 1.502e-14
2573.95 1.5836e-14
2585.83 1.5654e-14
2597.76 1.5509e-14
2603.75 1.4982e-14
2615.77 1.4844e-14
2627.84 1.5258e-14
2633.9 1.5328e-14
2646.06 1.6198e-14
2652.16 1.6123e-14
2664.4 1.5011e-14
2676.7 1.5609e-14
2682.87 1.5359e-14
2695.25 1.4905e-14
2707.69 1.5076e-14
2713.93 1.4597e-14
2726.46 1.4663e-14
2732.74 1.5248e-14
2745.36 1.3683e-14
2758.03 1.3713e-14
2764.39 1.4e-14
2777.15 1.4557e-14
2783.55 1.4291e-14
2796.4 1.2051e-14
2802.85 1.2853e-14
2815.78 1.4453e-14
2822.27 1.462e-14
2835.3 1.3864e-14
2841.84 1.3673e-14
2854.95 1.3609e-14
2868.13 1.4184e-14
2874.74 1.3892e-14
2888.01 1.3922e-14
2894.67 1.3668e-14
2908.03 1.4277e-14
2928.19 1.3918e-14
2948.49 1.3693e-14
2968.92 1.3691e-14
2989.5 1.3625e-14
3010.23 1.3654e-14
3031.09 1.3527e-14
3052.1 1.3338e-14
3073.26 1.3183e-14
3087.45 1.3151e-14
3108.85 1.2879e-14
3130.39 1.2729e-14
3152.09 1.2697e-14
3166.64 1.2492e-14
3188.59 1.2093e-14
3210.7 1.223e-14
3232.95 1.1976e-14
3247.87 1.1975e-14
3270.39 1.1944e-14
3293.06 1.1859e-14
3308.26 1.1775e-14
3323.53 1.18e-14
3331.19 1.1772e-14
3338.87 1.1346e-14
3346.56 1.1555e-14
3354.28 1.124e-14
3362.01 1.129e-14
3369.76 1.1212e-14
3377.53 1.1057e-14
3385.32 1.1444e-14
3393.12 1.1523e-14
3400.94 1.1736e-14
3408.78 1.1078e-14
3416.64 1.1309e-14
3424.52 1.1413e-14
3432.41 1.1517e-14
3440.32 1.1408e-14
3448.25 1.104e-14
3456.2 1.0708e-14
3464.17 1.0653e-14
3472.16 1.0844e-14
3480.16 1.0788e-14
3488.18 1.0881e-14
3496.22 1.0875e-14
3504.28 1.0597e-14
3512.36 1.0517e-14
3520.46 1.0682e-14
3528.57 1.0602e-14
3536.71 1.0768e-14
3544.86 1.0836e-14
3550.73 9.7251e-15
3553.38 1.1143e-14
3556.03 1.0937e-14
3558.69 1.0131e-14
3561.34 1.0475e-14
3564.0 1.098e-14
3566.65 1.1419e-14
3569.31 8.7757e-15
3571.96 9.4931e-15
3574.61 9.6744e-15
3577.27 1.0351e-14
3579.92 9.1211e-15
3582.58 9.5567e-15
3585.23 9.4171e-15
3587.88 9.2429e-15
3590.54 1.0307e-14
3593.19 9.7559e-15
3595.85 9.5317e-15
3598.5 8.2089e-15
3601.16 1.1987e-14
3603.81 1.2235e-14
3606.46 1.1744e-14
3609.12 1.0571e-14
3611.77 1.0726e-14
3614.43 8.8459e-15
3617.08 9.1599e-15
3619.73 1.0473e-14
3622.39 1.0072e-14
3625.04 9.4577e-15
3627.7 1.0935e-14
3630.35 1.0842e-14
3633.01 1.0301e-14
3635.66 9.7824e-15
3638.31 8.268e-15
3640.97 9.7547e-15
3643.62 1.0527e-14
3646.28 1.0947e-14
3648.93 9.9444e-15
3651.58 9.1017e-15
3654.24 1.0538e-14
3656.89 1.0527e-14
3659.55 1.0355e-14
3662.2 1.0567e-14
3664.86 9.2921e-15
3667.51 9.7964e-15
3670.16 1.0392e-14
3672.82 1.1162e-14
3675.47 9.8253e-15
3678.13 9.86e-15
3680.78 1.0149e-14
3683.44 8.1201e-15
3686.09 9.4222e-15
3688.74 9.537e-15
3691.4 9.755e-15
3694.05 1.0666e-14
3696.71 1.0017e-14
3699.36 9.816e-15
3702.01 7.9773e-15
3704.67 8.5903e-15
3707.32 1.0696e-14
3709.98 9.3525e-15
3712.63 1.1855e-14
3715.29 1.2228e-14
3717.94 1.4405e-14
3720.59 2.1135e-14
3723.25 3.6724e-14
3725.9 5.1587e-14
3728.56 5.5732e-14
3731.21 4.5011e-14
3733.86 2.9396e-14
3736.52 1.6806e-14
3739.17 1.3244e-14
3741.83 1.1612e-14
3744.48 1.1267e-14
3747.14 1.1939e-14
3749.79 9.9723e-15
3752.44 1.0299e-14
3755.1 1.1016e-14
3757.75 1.1399e-14
3760.41 1.1771e-14
3763.06 1.2868e-14
3765.72 1.2366e-14
3768.37 1.1905e-14
3771.02 1.0863e-14
3773.68 1.0754e-14
3776.33 1.1555e-14
3778.99 1.1765e-14
3781.64 1.3058e-14
3784.29 1.2895e-14
3786.95 1.2978e-14
3789.6 1.1367e-14
3792.26 1.1695e-14
3794.91 1.0973e-14
3797.57 8.7208e-15
3800.22 9.4988e-15
3802.87 9.8897e-15
3805.53 1.1624e-14
3808.18 1.2871e-14
3810.84 1.2942e-14
3813.49 1.1049e-14
3816.14 1.2064e-14
3818.8 1.2502e-14
3821.45 1.1571e-14
3824.11 1.0219e-14
3826.76 1.1508e-14
3829.42 1.1333e-14
3832.07 1.0043e-14
3834.72 8.9059e-15
3837.38 1.1108e-14
3840.03 1.0102e-14
3842.69 1.2173e-14
3845.34 1.1991e-14
3847.99 1.1892e-14
3850.65 1.3036e-14
3853.3 1.3056e-14
3855.96 1.4226e-14
3858.61 1.5279e-14
3861.27 1.4194e-14
3863.92 1.5975e-14
3866.57 1.6757e-14
3869.23 1.6929e-14
3871.88 1.631e-14
3874.54 1.4685e-14
3877.19 1.3466e-14
3879.85 1.1498e-14
3882.5 1.227e-14
3885.15 1.2942e-14
3887.81 1.4348e-14
3890.46 1.439e-14
3893.12 1.3618e-14
3895.77 1.114e-14
3898.42 1.1371e-14
3901.08 1.4186e-14
3903.73 1.3839e-14
3906.39 1.3815e-14
3909.04 1.4589e-14
3911.7 1.598e-14
3914.35 1.4285e-14
3917.0 1.3656e-14
3919.66 1.4278e-14
3922.31 1.3259e-14
3924.97 1.4181e-14
3927.62 1.1626e-14
3930.27 1.2107e-14
3932.93 1.1712e-14
3935.58 1.2553e-14
3938.24 1.2962e-14
3940.89 1.2637e-14
3943.55 1.3484e-14
3946.2 1.4345e-14
3948.85 1.3286e-14
3951.51 1.3267e-14
3954.16 1.126e-14
3956.82 1.1855e-14
3959.47 1.3102e-14
3962.13 1.1976e-14
3964.78 1.2718e-14
3967.43 1.3542e-14
3970.09 1.2605e-14
3972.74 1.231e-14
3975.4 1.1836e-14
3978.05 1.1826e-14
3980.7 1.1686e-14
3983.36 1.1057e-14
3986.01 1.2834e-14
3988.67 1.2805e-14
3991.32 1.2931e-14
3993.98 1.4872e-14
3996.63 1.314e-14
3999.28 1.3289e-14
4001.94 1.3458e-14
4004.59 1.3383e-14
4007.25 1.3828e-14
4009.9 1.4213e-14
4012.55 1.4367e-14
4015.21 1.3472e-14
4017.86 1.5323e-14
4020.52 1.5341e-14
4023.17 1.4906e-14
4025.83 1.4151e-14
4028.48 1.4135e-14
4031.13 1.4531e-14
4033.79 1.4454e-14
4036.44 1.5019e-14
4039.1 1.4742e-14
4041.75 1.4425e-14
4044.4 1.4737e-14
4047.06 1.5142e-14
4049.71 1.5142e-14
4052.37 1.4681e-14
4055.02 1.5072e-14
4057.68 1.5717e-14
4060.33 1.4276e-14
4062.98 1.4537e-14
4065.64 1.4916e-14
4068.29 1.5713e-14
4070.95 1.5179e-14
4073.6 1.4816e-14
4076.26 1.4402e-14
4078.91 1.305e-14
4081.56 1.4314e-14
4084.22 1.4225e-14
4086.87 1.3593e-14
4089.53 1.3161e-14
4092.18 1.3688e-14
4094.83 1.3516e-14
4097.49 1.4513e-14
4100.14 1.5055e-14
4102.8 1.5429e-14
4105.45 1.4345e-14
4108.11 1.2834e-14
4110.76 1.2623e-14
4113.41 1.2997e-14
4116.07 1.3068e-14
4118.72 1.4084e-14
4121.38 1.4414e-14
4124.03 1.4034e-14
4126.68 1.3491e-14
4129.34 1.2724e-14
4131.99 1.3394e-14
4134.65 1.2789e-14
4137.3 1.2772e-14
4139.96 1.2385e-14
4142.61 1.343e-14
4145.26 1.3381e-14
4147.92 1.3572e-14
4150.57 1.3564e-14
4153.23 1.2913e-14
4155.88 1.3552e-14
4158.54 1.3606e-14
4161.19 1.3258e-14
4163.84 1.4136e-14
4166.5 1.3758e-14
4169.15 1.3501e-14
4171.81 1.3424e-14
4174.46 1.3266e-14
4177.11 1.3489e-14
4179.77 1.3464e-14
4182.42 1.3156e-14
4185.08 1.3071e-14
4187.73 1.2812e-14
4190.39 1.3132e-14
4193.04 1.3357e-14
4195.69 1.3439e-14
4198.35 1.366e-14
4201.0 1.336e-14
4203.66 1.3599e-14
4206.31 1.3544e-14
4208.96 1.2304e-14
4211.62 1.3305e-14
4214.27 1.3356e-14
4216.93 1.3544e-14
4219.58 1.33e-14
4222.24 1.3487e-14
4224.89 1.327e-14
4227.54 1.2813e-14
4230.2 1.336e-14
4232.85 1.3556e-14
4235.51 1.3778e-14
4238.16 1.2963e-14
4240.81 1.3489e-14
4243.47 1.3805e-14
4246.12 1.3609e-14
4248.78 1.3942e-14
4251.43 1.3604e-14
4254.09 1.3278e-14
4256.74 1.3807e-14
4259.39 1.2997e-14
4262.05 1.3422e-14
4264.7 1.3798e-14
4267.36 1.3535e-14
4270.01 1.3735e-14
4272.67 1.3159e-14
4275.32 1.3676e-14
4277.97 1.3729e-14
4280.63 1.3292e-14
4283.28 1.3485e-14
4285.94 1.3444e-14
4288.59 1.3736e-14
4291.24 1.3758e-14
4293.9 1.3239e-14
4296.55 1.3102e-14
4299.21 1.2514e-14
4301.86 1.2078e-14
4304.52 1.1721e-14
4307.17 1.1947e-14
4309.82 1.2831e-14
4312.48 1.3719e-14
4315.13 1.3411e-14
4317.79 1.2691e-14
4320.44 1.2702e-14
4323.09 1.2756e-14
4325.75 1.3268e-14
4328.4 1.2197e-14
4331.06 1.2692e-14
4333.71 1.3436e-14
4336.37 1.6153e-14
4339.02 1.9287e-14
4341.67 2.0526e-14
4344.33 1.6286e-14
4346.98 1.3554e-14
4349.64 1.2151e-14
4352.29 1.224e-14
4354.95 1.3079e-14
4357.6 1.3578e-14
4360.25 1.3487e-14
4362.91 1.4195e-14
4365.56 1.3135e-14
4368.22 1.2889e-14
4370.87 1.3383e-14
4373.52 1.3664e-14
4376.18 1.311e-14
4378.83 1.3348e-14
4381.49 1.2446e-14
4384.14 1.3191e-14
4386.8 1.3058e-14
4389.45 1.3883e-14
4392.1 1.2969e-14
4394.76 1.2958e-14
4397.41 1.3276e-14
4400.07 1.2898e-14
4402.72 1.2195e-14
4405.37 1.2769e-14
4408.03 1.3245e-14
4410.68 1.3264e-14
4413.34 1.2735e-14
4415.99 1.293e-14
4418.65 1.328e-14
4421.3 1.2769e-14
4423.95 1.2945e-14
4426.61 1.322e-14
4429.26 1.3423e-14
4431.92 1.3782e-14
4434.57 1.2945e-14
4437.22 1.3016e-14
4439.88 1.3666e-14
4442.53 1.3011e-14
4445.19 1.305e-14
4447.84 1.3516e-14
4450.5 1.3205e-14
4453.15 1.3202e-14
4455.8 1.2923e-14
4458.46 1.2931e-14
4461.11 1.241e-14
4463.77 1.2723e-14
4466.42 1.2922e-14
4469.08 1.3508e-14
4471.73 1.34e-14
4474.38 1.3406e-14
4477.04 1.2995e-14
4479.69 1.3079e-14
4482.35 1.3221e-14
4485.0 1.3408e-14
4487.65 1.3395e-14
4490.31 1.3147e-14
4492.96 1.3797e-14
4495.62 1.2877e-14
4498.27 1.2848e-14
4500.93 1.3089e-14
4503.58 1.2988e-14
4506.23 1.3405e-14
4508.89 1.3049e-14
4511.54 1.363e-14
4514.2 1.3437e-14
4516.85 1.3068e-14
4519.5 1.29e-14
4522.16 1.2433e-14
4524.81 1.3104e-14
4527.47 1.204e-14
4530.12 1.2857e-14
4532.78 1.304e-14
4535.43 1.2868e-14
4538.08 1.2438e-14
4540.74 1.2473e-14
4543.39 1.3026e-14
4546.05 1.3046e-14
4548.7 1.2729e-14
4551.36 1.2006e-14
4554.01 1.2755e-14
4556.66 1.3543e-14
4559.32 1.3802e-14
4561.97 1.3491e-14
4564.63 1.32e-14
4567.28 1.3562e-14
4569.93 1.3849e-14
4572.59 1.3302e-14
4575.24 1.3273e-14
4577.9 1.35e-14
4580.55 1.3809e-14
4583.21 1.2907e-14
4585.86 1.2997e-14
4588.51 1.3013e-14
4591.17 1.3683e-14
4593.82 1.2924e-14
4596.48 1.3363e-14
4599.13 1.4265e-14
4601.78 1.4143e-14
4604.44 1.3748e-14
4607.09 1.3565e-14
4609.75 1.3183e-14
4612.4 1.3707e-14
4615.06 1.4181e-14
4617.71 1.3619e-14
4620.36 1.3949e-14
4623.02 1.3488e-14
4625.67 1.3736e-14
4628.33 1.3534e-14
4630.98 1.3247e-14
4633.63 1.4022e-14
4636.29 1.3121e-14
4638.94 1.3312e-14
4641.6 1.2972e-14
4644.25 1.2352e-14
4646.91 1.3777e-14
4649.56 1.3271e-14
4652.21 1.3243e-14
4654.87 1.2861e-14
4657.52 1.2656e-14
4660.18 1.3223e-14
4662.83 1.2998e-14
4665.49 1.2297e-14
4668.14 1.2289e-14
4670.79 1.1638e-14
4673.45 1.2411e-14
4676.1 1.2796e-14
4678.76 1.2661e-14
4681.41 1.2711e-14
4684.06 1.2181e-14
4686.72 1.1994e-14
4689.37 1.1475e-14
4692.03 1.2569e-14
4694.68 1.2686e-14
4697.34 1.2841e-14
4699.99 1.2099e-14
4702.64 1.2893e-14
4705.3 1.2552e-14
4707.95 1.2602e-14
4710.61 1.232e-14
4713.26 1.2753e-14
4715.91 1.2963e-14
4718.57 1.1813e-14
4721.22 1.2865e-14
4723.88 1.1912e-14
4726.53 1.2412e-14
4729.19 1.2959e-14
4731.84 1.2155e-14
4734.49 1.2219e-14
4737.15 1.2225e-14
4739.8 1.2516e-14
4742.46 1.2755e-14
4745.11 1.2292e-14
4747.77 1.2133e-14
4750.42 1.2072e-14
4753.07 1.2232e-14
4755.73 1.1969e-14
4758.38 1.2329e-14
4761.04 1.1927e-14
4763.69 1.2599e-14
4766.34 1.1847e-14
4769.0 1.2324e-14
4771.65 1.2295e-14
4774.31 1.1974e-14
4776.96 1.2485e-14
4779.62 1.3243e-14
4782.27 1.2896e-14
4784.92 1.3103e-14
4787.58 1.2444e-14
4790.23 1.2351e-14
4792.89 1.1781e-14
4795.54 1.2264e-14
4798.19 1.2741e-14
4800.85 1.2453e-14
4803.5 1.3179e-14
4806.16 1.2596e-14
4808.81 1.2292e-14
4811.47 1.1958e-14
4814.12 1.2208e-14
4816.77 1.214e-14
4819.43 1.2974e-14
4822.08 1.2887e-14
4824.74 1.269e-14
4827.39 1.2982e-14
4830.04 1.2391e-14
4832.7 1.2038e-14
4835.35 1.2281e-14
4838.01 1.1979e-14
4840.66 1.2034e-14
4843.32 1.1361e-14
4845.97 1.1621e-14
4848.62 1.1586e-14
4851.28 1.2325e-14
4853.93 1.316e-14
4856.59 1.9427e-14
4859.24 2.8137e-14
4861.9 3.1928e-14
4864.55 2.7604e-14
4867.2 1.9913e-14
4869.86 1.3948e-14
4872.51 1.2577e-14
4875.17 1.0995e-14
4877.82 1.0694e-14
4880.47 1.1442e-14
4883.13 1.1176e-14
4885.78 1.1891e-14
4888.44 1.1329e-14
4891.09 1.1668e-14
4893.75 1.139e-14
4896.4 1.122e-14
4899.05 1.2196e-14
4901.71 1.1963e-14
4904.36 1.2336e-14
4907.02 1.1963e-14
4909.67 1.1749e-14
4912.32 1.2115e-14
4914.98 1.2163e-14
4917.63 1.1388e-14
4920.29 1.1504e-14
4922.94 1.169e-14
4925.6 1.1861e-14
4928.25 1.1646e-14
4930.9 1.2084e-14
4933.56 1.1368e-14
4936.21 1.1601e-14
4938.87 1.1858e-14
4941.52 1.2233e-14
4944.18 1.1831e-14
4946.83 1.2334e-14
4949.48 1.226e-14
4952.14 1.3929e-14
4954.79 1.9425e-14
4957.45 2.3819e-14
4960.1 2.4425e-14
4962.75 2.0107e-14
4965.41 1.5566e-14
4968.06 1.3338e-14
4970.72 1.2201e-14
4973.37 1.1512e-14
4976.03 1.2102e-14
4978.68 1.2228e-14
4981.33 1.1123e-14
4983.99 1.145e-14
4986.64 1.173e-14
4989.3 1.1997e-14
4991.95 1.1628e-14
4994.6 1.1775e-14
4997.26 1.3892e-14
4999.91 1.9423e-14
5002.57 3.1949e-14
5005.22 4.5736e-14
5007.88 5.0024e-14
5010.53 4.051e-14
5013.18 2.546e-14
5015.84 1.6257e-14
5018.49 1.2597e-14
5021.15 1.1361e-14
5023.8 1.0791e-14
5026.45 1.1188e-14
5029.11 1.1129e-14
5031.76 1.1714e-14
5034.42 1.2248e-14
5037.07 1.2488e-14
5039.73 1.1431e-14
5042.38 1.1315e-14
5045.03 1.0993e-14
5047.69 1.1649e-14
5050.34 1.1473e-14
5053.0 1.1489e-14
5055.65 1.1684e-14
5058.31 1.1408e-14
5060.96 1.1593e-14
5063.61 1.1591e-14
5066.27 1.1562e-14
5068.92 1.1247e-14
5071.58 1.1315e-14
5074.23 1.1258e-14
5076.88 1.0783e-14
5079.54 1.1173e-14
5082.19 1.0698e-14
5084.85 1.1045e-14
5087.5 1.1032e-14
5090.16 1.0899e-14
5092.81 1.1154e-14
5095.46 1.0953e-14
5098.12 1.1545e-14
5100.77 1.0791e-14
5103.43 1.1104e-14
5106.08 1.1471e-14
5108.73 1.1424e-14
5111.39 1.1083e-14
5114.04 1.1144e-14
5116.7 1.1533e-14
5119.35 1.142e-14
5122.01 1.0969e-14
5124.66 1.099e-14
5127.31 1.1348e-14
5129.97 1.0849e-14
5132.62 1.1249e-14
5135.28 1.1188e-14
5137.93 1.1114e-14
5140.59 1.1056e-14
5143.24 9.8833e-15
5145.89 1.0751e-14
5148.55 1.1211e-14
5151.2 1.1144e-14
5153.86 1.0815e-14
5156.51 1.0593e-14
5159.16 1.1078e-14
5161.82 1.1227e-14
5164.47 1.0853e-14
5167.13 1.0796e-14
5169.78 1.0196e-14
5172.44 9.8119e-15
5175.09 1.0308e-14
5177.74 1.0772e-14
5180.4 1.0894e-14
5183.05 1.0149e-14
5185.71 1.1054e-14
5188.36 1.1104e-14
5191.01 1.054e-14
5193.67 1.1378e-14
5196.32 1.1547e-14
5198.98 1.1434e-14
5201.63 1.1635e-14
5204.29 1.1372e-14
5206.94 1.0866e-14
5209.59 1.0956e-14
5212.25 1.0446e-14
5214.9 1.0887e-14
5217.56 1.0985e-14
5220.21 1.0581e-14
5222.86 1.0875e-14
5225.52 1.0736e-14
5228.17 1.109e-14
5230.83 1.045e-14
5233.48 1.0564e-14
5236.14 1.0712e-14
5238.79 1.1328e-14
5241.44 1.1253e-14
5244.1 1.1258e-14
5246.75 1.0832e-14
5249.41 1.1541e-14
5252.06 1.0541e-14
5254.72 1.0503e-14
5257.37 1.081e-14
5260.02 1.0796e-14
5262.68 1.0559e-14
5265.33 1.0663e-14
5267.99 1.0247e-14
5270.64 1.0802e-14
5273.29 1.0602e-14
5275.95 1.0132e-14
5278.6 9.895e-15
5281.26 1.0655e-14
5283.91 1.1307e-14
5286.57 1.0792e-14
5289.22 1.1216e-14
5291.87 1.1483e-14
5294.53 1.1343e-14
5297.18 1.1185e-14
5299.84 1.0581e-14
5302.49 1.0077e-14
5305.14 1.0855e-14
5307.8 1.0302e-14
5310.45 1.0631e-14
5313.11 1.1528e-14
5315.76 1.1064e-14
5318.42 1.0772e-14
5321.07 1.0969e-14
5323.72 1.0762e-14
5326.38 1.0308e-14
5329.03 1.0287e-14
5331.69 1.0628e-14
5334.34 1.0849e-14
5337.0 1.1253e-14
5339.65 1.102e-14
5342.3 1.1018e-14
5344.96 1.054e-14
5347.61 1.077e-14
5350.27 1.0557e-14
5352.92 1.0169e-14
5355.57 1.0376e-14
5358.23 1.0803e-14
5360.88 1.0902e-14
5363.54 1.031e-14
5366.19 1.0211e-14
5368.85 1.0715e-14
5371.5 1.0601e-14
5374.15 1.0203e-14
5376.81 1.0248e-14
5379.46 1.0881e-14
5382.12 1.0918e-14
5384.77 1.1046e-14
5387.42 1.0067e-14
5390.08 1.0857e-14
5392.73 1.0606e-14
5395.39 1.068e-14
5398.04 1.0819e-14
5400.7 1.0592e-14
5403.35 1.0065e-14
5406.0 1.0232e-14
5408.66 1.0278e-14
5411.31 1.0047e-14
5413.97 1.0646e-14
5416.62 1.0302e-14
5419.27 1.1469e-14
5421.93 1.0514e-14
5424.58 1.093e-14
5427.24 1.0542e-14
5429.89 1.0225e-14
5432.55 1.0505e-14
5435.2 1.0041e-14
5437.85 1.0246e-14
5440.51 1.0632e-14
5443.16 1.076e-14
5445.82 1.0293e-14
5448.47 9.7465e-15
5451.13 1.0309e-14
5453.78 1.0402e-14
5456.43 1.0401e-14
5459.09 1.0282e-14
5461.74 1.0423e-14
5464.4 1.0211e-14
5467.05 1.0522e-14
5469.7 1.0502e-14
5472.36 1.0969e-14
5475.01 1.0662e-14
5477.67 1.0571e-14
5480.32 9.9586e-15
5482.98 1.0753e-14
5485.63 9.7739e-15
5488.28 1.1285e-14
5490.94 1.0872e-14
5493.59 1.0823e-14
5496.25 9.9172e-15
5498.9 1.0276e-14
5501.55 1.0022e-14
5504.21 1.0394e-14
5506.86 1.0377e-14
5509.52 1.0777e-14
5512.17 1.0114e-14
5514.83 1.0615e-14
5517.48 1.0243e-14
5520.13 1.0381e-14
5522.79 1.0124e-14
5525.44 1.0083e-14
5528.1 1.0378e-14
5530.75 1.066e-14
5533.41 9.9622e-15
5536.06 1.0601e-14
5538.71 1.0736e-14
5541.37 1.0818e-14
5544.02 1.067e-14
5546.68 9.7424e-15
5549.33 1.0006e-14
5551.98 1.0771e-14
5554.64 1.1374e-14
5557.29 1.0517e-14
5559.95 1.0354e-14
5562.6 1.0249e-14
5565.26 1.0401e-14
5567.91 1.0191e-14
5570.56 1.0202e-14
5573.22 1.012e-14
5575.87 1.0197e-14
5578.53 9.7243e-15
5581.18 1.0553e-14
5583.83 9.8664e-15
5586.49 9.5573e-15
5589.14 9.6771e-15
5591.8 1.0049e-14
5594.45 1.0347e-14
5597.11 9.4459e-15
5599.76 9.6933e-15
5602.41 1.0108e-14
5605.07 1.0538e-14
5607.72 1.0877e-14
5610.38 1.0114e-14
5613.03 1.0242e-14
5615.68 9.4605e-15
5618.34 1.0025e-14
5620.99 1.0262e-14
5623.65 1.0388e-14
5626.3 9.74e-15
5628.96 9.7882e-15
5631.61 1.0272e-14
5634.26 9.9865e-15
5636.92 1.0131e-14
5639.57 9.6147e-15
5642.23 1.0153e-14
5644.88 1.0207e-14
5647.54 1.0285e-14
5650.19 9.7384e-15
5652.84 9.8487e-15
5655.5 9.5874e-15
5658.15 9.5512e-15
5660.81 9.5149e-15
5663.46 9.5573e-15
5666.11 9.9256e-15
5668.77 1.0137e-14
5671.42 1.0523e-14
5674.08 9.515e-15
5676.73 1.0519e-14
5679.39 9.4421e-15
5682.04 9.9036e-15
5684.69 9.3463e-15
5687.35 1.0125e-14
5690.0 9.5307e-15
5692.66 9.7375e-15
5695.31 1.0112e-14
5697.96 1.0049e-14
5700.62 1.0405e-14
5703.27 9.4303e-15
5705.93 9.7874e-15
5708.58 9.9211e-15
5711.24 9.7493e-15
5713.89 9.9931e-15
5716.54 1.0129e-14
5719.2 1.0167e-14
5721.85 9.8878e-15
5724.51 9.587e-15
5727.16 9.3231e-15
5729.82 9.5368e-15
5732.47 9.7148e-15
5735.12 9.5102e-15
5737.78 9.6189e-15
5740.43 9.751e-15
5743.09 1.0048e-14
5745.74 1.0326e-14
5748.39 9.6299e-15
5751.05 9.3733e-15
5753.7 1.0243e-14
5756.36 1.0903e-14
5759.01 1.0278e-14
5761.67 1.0533e-14
5764.32 1.0315e-14
5766.97 1.0523e-14
5769.63 9.9707e-15
5772.28 9.4428e-15
5774.94 9.5314e-15
5777.59 9.9169e-15
5780.24 9.4208e-15
5782.9 9.1941e-15
5785.55 9.6194e-15
5788.21 9.7608e-15
5790.86 1.0123e-14
5793.52 1.0032e-14
5796.17 9.4945e-15
5798.82 1.0166e-14
5801.48 1.0448e-14
5804.13 1.0305e-14
5806.79 1.0082e-14
5809.44 8.9352e-15
5812.09 9.4479e-15
5814.75 9.6294e-15
5817.4 1.0429e-14
5820.06 9.7413e-15
5822.71 9.2865e-15
5825.37 9.0849e-15
5828.02 1.0844e-14
5830.67 1.0079e-14
5833.33 9.6991e-15
5835.98 9.9335e-15
5838.64 9.6619e-15
5841.29 9.8918e-15
5843.95 9.9493e-15
5846.6 9.8739e-15
5849.25 9.9617e-15
5851.91 9.7937e-15
5854.56 9.5839e-15
5857.22 9.8419e-15
5859.87 1.01e-14
5862.52 9.6936e-15
5865.18 9.7239e-15
5867.83 1.009e-14
5870.49 1.0486e-14
5873.14 1.1867e-14
5875.8 1.2416e-14
5878.45 1.2956e-14
5881.1 1.0515e-14
5883.76 9.2138e-15
5886.41 9.9419e-15
5889.07 9.2991e-15
5891.72 8.4233e-15
5894.37 8.5695e-15
5897.03 9.8354e-15
5899.68 9.337e-15
5902.34 9.6736e-15
5904.99 9.6629e-15
5907.65 9.6765e-15
5910.3 9.2152e-15
5912.95 1.0105e-14
5915.61 8.8804e-15
5918.26 1.0257e-14
5920.92 9.2418e-15
5923.57 1.0423e-14
5926.23 9.465e-15
5928.88 9.9919e-15
5931.53 8.9838e-15
5934.19 9.1228e-15
5936.84 9.1737e-15
5939.5 9.8235e-15
5942.15 9.1271e-15
5944.8 9.2407e-15
5947.46 8.3945e-15
5950.11 8.8749e-15
5952.77 8.985e-15
5955.42 9.4037e-15
5958.08 8.8471e-15
5960.73 9.4119e-15
5963.38 8.6268e-15
5966.04 1.0201e-14
5968.69 9.9894e-15
5971.35 9.4868e-15
5974.0 9.5402e-15
5976.65 9.5559e-15
5979.31 9.3597e-15
5981.96 9.1869e-15
5984.62 8.7465e-15
5987.27 9.1387e-15
5989.93 9.7154e-15
5992.58 8.9242e-15
5995.23 8.5695e-15
5997.89 9.3858e-15
6000.54 9.1734e-15
6003.2 9.3441e-15
6005.85 9.4985e-15
6008.5 9.7767e-15
6011.16 9.4061e-15
6013.81 9.3093e-15
6016.47 9.8266e-15
6019.12 9.461e-15
6021.78 8.7873e-15
6024.43 9.4663e-15
6027.08 9.2171e-15
6029.74 9.4294e-15
6032.39 9.5874e-15
6035.05 9.8796e-15
6037.7 1.0344e-14
6040.36 9.7708e-15
6043.01 9.8658e-15
6045.66 9.0035e-15
6048.32 8.9155e-15
6050.97 9.5439e-15
6053.63 9.6371e-15
6056.28 9.6641e-15
6058.93 9.9974e-15
6061.59 9.8901e-15
6064.24 9.8689e-15
6066.9 9.651e-15
6069.55 9.798e-15
6072.21 8.9266e-15
6074.86 9.2477e-15
6077.51 9.9542e-15
6080.17 9.4765e-15
6082.82 9.3761e-15
6085.48 9.7103e-15
6088.13 9.6728e-15
6090.78 8.7761e-15
6093.44 9.1774e-15
6096.09 9.7199e-15
6098.75 9.2474e-15
6101.4 9.0791e-15
6104.06 9.7574e-15
6106.71 9.6149e-15
6109.36 8.9129e-15
6112.02 9.4366e-15
6114.67 8.9988e-15
6117.33 1.0423e-14
6119.98 1.0019e-14
6122.64 9.2527e-15
6125.29 9.4108e-15
6127.94 9.4893e-15
6130.6 9.6266e-15
6133.25 9.2429e-15
6135.91 9.4395e-15
6138.56 8.9115e-15
6141.21 9.5731e-15
6143.87 8.6775e-15
6146.52 9.505e-15
6149.18 9.4088e-15
6151.83 9.2649e-15
6154.49 8.491e-15
6157.14 9.0359e-15
6159.79 8.7726e-15
6162.45 9.2566e-15
6165.1 9.3423e-15
6167.76 9.2496e-15
6170.41 8.6606e-15
6173.06 9.3929e-15
6175.72 8.9022e-15
6178.37 9.0619e-15
6181.03 9.173e-15
6183.68 9.228e-15
6186.34 8.9726e-15
6188.99 8.3695e-15
6191.64 8.9879e-15
6194.3 9.7933e-15
6196.95 8.5759e-15
6199.61 8.9844e-15
6202.26 8.4055e-15
6204.91 9.6069e-15
6207.57 8.6373e-15
6210.22 9.3526e-15
6212.88 9.2364e-15
6215.53 9.0973e-15
6218.19 8.8837e-15
6220.84 9.3582e-15
6223.49 9.1639e-15
6226.15 8.5536e-15
6228.8 8.693e-15
6231.46 8.4339e-15
6234.11 8.6382e-15
6236.77 8.9325e-15
6239.42 8.8223e-15
6242.07 9.0334e-15
6244.73 8.7895e-15
6247.38 7.881e-15
6250.04 8.6911e-15
6252.69 8.9946e-15
6255.34 8.5621e-15
6258.0 8.6891e-15
6260.65 8.369e-15
6263.31 8.6939e-15
6265.96 9.1918e-15
6268.62 8.8688e-15
6271.27 8.7057e-15
6273.92 8.9494e-15
6276.58 9.2631e-15
6279.23 8.9007e-15
6281.89 9.0253e-15
6284.54 8.8978e-15
6287.19 9.1253e-15
6289.85 9.2108e-15
6292.5 9.3683e-15
6295.16 1.0112e-14
6297.81 1.1183e-14
6300.47 1.186e-14
6303.12 1.1635e-14
6305.77 1.0344e-14
6308.43 8.5749e-15
6311.08 8.9662e-15
6313.74 8.3625e-15
6316.39 9.3135e-15
6319.05 8.507e-15
6321.7 8.7517e-15
6324.35 9.2194e-15
6327.01 8.3553e-15
6329.66 8.1368e-15
6332.32 8.1157e-15
6334.97 8.7462e-15
6337.62 8.5495e-15
6340.28 9.1676e-15
6342.93 8.6374e-15
6345.59 9.027e-15
6348.24 8.6397e-15
6350.9 8.9759e-15
6353.55 8.4054e-15
6356.2 8.3703e-15
6358.86 9.4891e-15
6361.51 9.2926e-15
6364.17 9.199e-15
6366.82 9.8707e-15
6369.47 9.3808e-15
6372.13 9.2584e-15
6374.78 8.6709e-15
6377.44 8.9097e-15
6380.09 8.5816e-15
6382.75 8.9012e-15
6385.4 8.2922e-15
6388.05 9.6257e-15
6390.71 8.9722e-15
6393.36 9.965e-15
6396.02 8.1002e-15
6398.67 9.2335e-15
6401.32 8.1284e-15
6403.98 9.4331e-15
6406.63 8.2517e-15
6409.29 8.8584e-15
6411.94 8.2938e-15
6414.6 8.9904e-15
6417.25 8.5672e-15
6419.9 8.8842e-15
6422.56 8.6705e-15
6425.21 8.7266e-15
6427.87 7.9132e-15
6430.52 8.6723e-15
6433.18 7.9505e-15
6435.83 8.708e-15
6438.48 9.0729e-15
6441.14 9.0121e-15
6443.79 9.6623e-15
6446.45 9.2088e-15
6449.1 8.9607e-15
6451.75 8.6328e-15
6454.41 8.5081e-15
6457.06 8.5295e-15
6459.72 9.1254e-15
6462.37 9.1649e-15
6465.03 8.8241e-15
6467.68 8.5665e-15
6470.33 8.9559e-15
6472.99 8.8381e-15
6475.64 8.673e-15
6478.3 8.8153e-15
6480.95 8.0695e-15
6483.6 8.7613e-15
6486.26 8.0338e-15
6488.91 8.8964e-15
6491.57 8.2571e-15
6494.22 8.8421e-15
6496.88 8.6858e-15
6499.53 8.8914e-15
6502.18 8.4284e-15
6504.84 8.5484e-15
6507.49 8.1426e-15
6510.15 7.7681e-15
6512.8 8.0581e-15
6515.46 8.579e-15
6518.11 8.6625e-15
6520.76 8.8375e-15
6523.42 8.7173e-15
6526.07 8.3746e-15
6528.73 9.2846e-15
6531.38 8.8879e-15
6534.03 8.7924e-15
6536.69 9.3628e-15
6539.34 9.799e-15
6542.0 1.1293e-14
6544.65 1.4091e-14
6547.31 1.6221e-14
6549.96 1.7487e-14
6552.61 1.7306e-14
6555.27 2.6505e-14
6557.92 5.0609e-14
6560.58 8.3493e-14
6563.23 9.7176e-14
6565.88 7.5877e-14
6568.54 4.3334e-14
6571.19 2.3036e-14
6573.85 1.4376e-14
6576.5 1.5602e-14
6579.16 2.0612e-14
6581.81 2.9633e-14
6584.46 2.9916e-14
6587.12 2.5853e-14
6589.77 1.7229e-14
6600.84 8.1159e-15
6616.06 8.1305e-15
6631.31 8.1451e-15
6646.6 8.1973e-15
6661.92 8.0993e-15
6677.27 8.1138e-15
6692.67 7.98e-15
6708.09 8.0127e-15
6723.56 7.6657e-15
6739.06 7.8763e-15
6754.59 7.7108e-15
6770.16 7.832e-15
6785.77 7.9185e-15
6801.41 7.6633e-15
6817.09 7.7658e-15
6832.81 7.8155e-15
6848.56 7.5809e-15
6864.35 7.5421e-15
6880.17 7.5207e-15
6896.03 7.5863e-15
6911.93 7.5127e-15
6927.86 7.4914e-15
6943.83 7.6971e-15
6959.84 7.6224e-15
6975.88 7.8497e-15
6991.96 7.7914e-15
7008.08 7.6275e-15
7024.24 7.5534e-15
7040.43 7.7429e-15
7056.66 7.9554e-15
7072.93 7.1519e-15
7089.23 7.3992e-15
7105.58 7.1276e-15
7121.95 7.1236e-15
7138.37 6.7679e-15
7154.83 6.874e-15
7171.32 6.8229e-15
7187.85 6.7565e-15
7204.42 6.7995e-15
7221.03 7.0507e-15
7237.68 7.1283e-15
7254.36 7.2067e-15
7271.09 7.0386e-15
7287.85 7.0346e-15
7304.65 7.345e-15
7321.49 7.307e-15
7338.36 7.3196e-15
7355.28 7.4171e-15
7372.23 7.2608e-15
7389.23 7.4255e-15
7406.26 7.4212e-15
7423.34 7.2147e-15
7440.45 7.3445e-15
7457.6 7.4081e-15
7474.79 7.4208e-15
7492.03 7.3993e-15
7509.3 7.429e-15
7526.6 7.5106e-15
7543.95 7.4716e-15
7561.35 7.3816e-15
7578.78 7.2425e-15
7596.25 7.1718e-15
7613.76 7.0043e-15
7631.31 7.0486e-15
7648.9 6.9316e-15
7666.54 6.6922e-15
7684.21 6.6574e-15
7701.92 6.6227e-15
7719.68 6.558e-15
7737.47 6.6451e-15
7755.31 6.3567e-15
7773.19 6.5157e-15
7791.11 6.5116e-15
7809.07 6.5225e-15
7827.07 6.6857e-15
7845.11 6.5746e-15
7863.2 6.6619e-15
7881.32 6.5814e-15
7899.49 6.6688e-15
7917.7 6.4235e-15
7935.95 6.449e-15
7954.25 6.2837e-15
7972.59 6.4407e-15
7990.96 6.5562e-15
8009.38 6.4472e-15
8027.85 6.6388e-15
8046.35 6.7268e-15
8064.9 6.6915e-15
8083.5 6.49e-15
8102.13 6.2944e-15
8120.81 6.5716e-15
8139.53 6.507e-15
8158.29 6.3988e-15
8177.1 6.3945e-15
8195.95 6.0746e-15
8214.84 6.4599e-15
8233.78 6.2652e-15
8252.76 6.4662e-15
8271.78 6.5668e-15
8290.85 6.2814e-15
8309.96 6.3062e-15
8329.12 6.116e-15
8348.32 6.1542e-15
8367.57 6.2788e-15
8386.85 6.0755e-15
8406.19 6.1134e-15
8425.57 6.1941e-15
8444.99 5.6974e-15
8464.46 5.9755e-15
8483.97 6.0824e-15
8503.53 5.8989e-15
8523.13 5.7739e-15
8542.78 5.9315e-15
8562.47 5.941e-15
8582.21 6.0471e-15
8602.0 5.7576e-15
8621.82 5.8067e-15
8641.7 6.0481e-15
8661.62 5.7585e-15
8681.59 5.5208e-15
8701.6 5.7768e-15
8721.66 5.9207e-15
8741.77 5.9574e-15
8761.92 5.3671e-15
8782.12 5.8268e-15
8802.36 5.9719e-15
8822.65 6.0784e-15
8842.99 6.0044e-15
8863.38 5.7036e-15
8883.81 5.4179e-15
8904.29 5.7877e-15
8924.82 5.8504e-15
8945.39 5.9137e-15
8966.01 5.6955e-15
8986.68 5.6521e-15
9007.4 5.4561e-15
9028.16 5.0183e-15
9048.97 5.9734e-15
9069.83 5.753e-15
9090.74 5.5407e-15
9111.69 5.7974e-15
9132.7 5.9142e-15
9153.75 5.6177e-15
9174.85 5.6134e-15
9196.01 5.6091e-15
9217.2 5.4144e-15
9238.45 4.957e-15
9259.75 5.456e-15
9281.1 5.6563e-15
9302.49 5.4349e-15
9323.93 5.5316e-15
9345.43 5.5272e-15
9366.97 5.4596e-15
9388.56 5.4931e-15
9410.21 5.3885e-15
9431.9 5.5096e-15
9453.64 5.4422e-15
9475.44 5.5134e-15
9497.28 5.4963e-15
9519.17 5.3545e-15
9541.11 4.993e-15
9563.11 5.2967e-15
9585.16 5.4407e-15
9607.25 5.3864e-15
9629.4 5.4068e-15
9651.6 5.3775e-15
9673.84 5.3483e-15
9696.14 5.3933e-15
9718.49 5.3272e-15
9740.91 5.2861e-15
9763.36 5.2574e-15
9785.87 5.2048e-15
9808.42 5.2849e-15
9831.03 5.232e-15
9853.69 5.2517e-15
9876.42 5.2231e-15
9899.18 5.1946e-15
9922.0 5.2021e-15
9944.87 5.2096e-15
9967.79 5.2051e-15
9990.77 5.1648e-15
10013.8 5.0895e-15
10083.22 4.9721e-15
10129.76 5.1496e-15
10176.51 5.1051e-15
10223.49 5.1313e-15
10270.68 5.1339e-15
10294.35 5.1174e-15
10509.92 4.9261e-15
10705.31 4.7044e-15
10904.33 4.4209e-15
11107.06 4.164e-15
11287.53 4.1448e-15
11497.39 4.1544e-15
11711.14 4.0692e-15
11901.43 3.904e-15
12094.81 3.8682e-15
12291.34 3.8063e-15
12491.06 3.6856e-15
12694.02 3.6017e-15
12900.28 3.5278e-15
13109.89 3.4714e-15
13292.27 3.369e-15
13508.25 3.2924e-15
13696.17 3.2248e-15
13886.7 3.101e-15
14112.34 2.9208e-15
14308.67 2.8478e-15
14507.72 2.8543e-15
14709.55 2.7638e-15
14914.18 2.8023e-15
15086.86 2.8217e-15
15296.74 2.8609e-15
15509.54 2.8609e-15
15689.14 2.7638e-15
15907.4 2.6273e-15
16091.6 2.5972e-15
16315.46 2.5912e-15
16504.37 2.5557e-15
16695.49 2.5734e-15
16888.82 2.5557e-15
17084.38 2.5381e-15
17282.2 2.4632e-15
17482.32 2.4072e-15
17684.76 2.3148e-15
17889.55 2.2413e-15
18096.68 2.1355e-15
18306.24 2.0821e-15
18518.22 2.0114e-15
18689.57 1.9209e-15
18905.97 1.8772e-15
19080.91 1.8514e-15
19301.87 1.801e-15
19480.45 1.7318e-15
19706.03 1.673e-15
19888.37 1.6274e-15
20118.66 1.5977e-15
20304.82 1.5471e-15
20492.71 1.5258e-15
20682.31 1.4911e-15
20921.8 1.4605e-15
21115.4 1.4372e-15
21310.77 1.4077e-15
21507.96 1.3788e-15
21706.98 1.3351e-15
21907.82 1.3137e-15
22110.54 1.2809e-15
22315.11 1.2381e-15
22521.6 1.199e-15
22677.7 1.1589e-15
22887.54 1.0302e-15
23099.33 1.0132e-15
23313.05 8.8178e-16
23474.66 8.1523e-16
23691.85 8.1985e-16
23911.08 7.5173e-16
24076.81 7.1569e-16
24299.6 7.0279e-16
24524.46 6.5131e-16
24694.44 6.3266e-16
24922.94 5.3565e-16
25095.69 5.2974e-16
25104.0 4.0045e-16
25197.33 4.6129e-16
25290.75 4.8233e-16
25384.08 5.1001e-16
25477.51 5.0181e-16
25570.94 5.1887e-16
25664.27 5.0292e-16
25757.7 5.3204e-16
25851.13 5.4709e-16
25944.46 6.2209e-16
26037.88 5.9473e-16
26131.22 5.9318e-16
26224.64 5.2554e-16
26318.07 5.2976e-16
26411.4 5.0448e-16
26504.83 5.2219e-16
26598.26 5.2842e-16
26691.59 5.5404e-16
26785.01 4.9076e-16
26878.35 5.0494e-16
26971.77 4.3986e-16
27065.2 5.051e-16
27158.53 4.1673e-16
27251.96 4.3587e-16
27345.39 3.2775e-16
27438.72 4.02e-16
27532.14 3.8174e-16
27625.48 4.7556e-16
27718.9 4.4372e-16
27812.33 5.0088e-16
27905.66 4.7654e-16
27999.09 5.0879e-16
28092.52 4.6558e-16
28185.85 4.844e-16
28279.28 4.2621e-16
28372.61 4.6505e-16
28466.03 4.1236e-16
28559.46 4.5194e-16
28652.79 3.9683e-16
28746.22 4.4653e-16
28839.65 3.9621e-16
28932.98 4.4227e-16
29026.41 3.6597e-16
29119.74 4.1304e-16
29213.16 3.8245e-16
29306.59 4.3139e-16
29399.92 3.6488e-16
29493.35 3.5773e-16
29586.78 3.5263e-16
29680.11 4.1328e-16
29773.54 4.031e-16
29866.87 4.1482e-16
29960.29 4.9375e-16
30053.72 5.1894e-16
30147.05 4.4262e-16
30240.48 3.6213e-16
30333.91 3.7731e-16
30427.24 4.5578e-16
30520.67 4.0798e-16
30614.0 4.1023e-16
30707.42 3.7408e-16
30800.85 3.8586e-16
30894.18 3.0003e-16
30987.61 3.0234e-16
31081.04 2.4739e-16
31174.37 2.997e-16
31267.8 2.6092e-16
31361.13 3.607e-16
31454.55 2.8603e-16
31547.98 3.5964e-16
31641.31 2.826e-16
31734.74 4.0457e-16
31828.16 3.5534e-16
31921.5 4.1632e-16
32014.93 3.4841e-16
32108.26 4.0902e-16
32201.69 3.9825e-16
32295.11 4.8496e-16
32388.44 4.6124e-16
32481.87 5.3403e-16
32575.3 5.3009e-16
32668.63 6.4391e-16
32762.05 6.6924e-16
32855.38 6.8492e-16
32948.81 6.242e-16
33042.24 6.2531e-16
33135.57 6.0118e-16
33229.0 6.1435e-16
33322.43 5.6684e-16
33415.76 6.0432e-16
33509.19 5.3931e-16
33602.52 5.408e-16
33695.94 5.0491e-16
33789.37 5.5256e-16
33882.7 5.005e-16
33976.13 5.124e-16
34069.56 4.4677e-16
34162.89 4.7318e-16
34256.31 3.8464e-16
34349.65 4.2918e-16
34443.07 3.5738e-16
34536.5 4.0477e-16
34629.83 3.2202e-16
34723.26 3.6163e-16
34816.69 3.3664e-16
34910.02 3.6969e-16
35003.45 3.3e-16
35096.78 3.3103e-16
35190.2 3.0914e-16
35283.63 3.2227e-16
35376.96 2.8984e-16
35470.39 3.1285e-16
35563.82 3.0599e-16
35657.15 3.5124e-16
35750.57 3.1936e-16
35843.91 3.2836e-16
35937.33 2.7146e-16
36030.76 3.0643e-16
36124.09 2.8326e-16
36217.52 3.1679e-16
36310.95 2.794e-16
36404.28 3.0165e-16
36497.71 2.7186e-16
36591.04 3.0325e-16
36684.46 2.7693e-16
36777.89 2.918e-16
36871.22 2.3144e-16
36964.65 2.608e-16
37058.08 2.257e-16
37151.41 2.732e-16
37244.84 2.55e-16
37338.17 2.8627e-16
37431.6 2.8263e-16
37525.02 3.0381e-16
37618.35 2.9013e-16
37711.78 3.0472e-16
37805.21 3.0099e-16
37898.54 3.1881e-16
37991.97 2.7813e-16
38085.3 2.5812e-16
38178.72 2.3422e-16
38272.15 2.4643e-16
38365.48 2.1602e-16
38458.91 2.2791e-16
38552.34 2.1839e-16
38645.67 2.5785e-16
38739.1 2.0401e-16
38832.43 2.2423e-16
38925.85 2.0717e-16
39019.28 2.5776e-16
39112.61 2.1635e-16
39206.04 2.3813e-16
39299.47 2.1913e-16
39392.8 2.6685e-16
39486.22 2.2112e-16
39579.56 2.4479e-16
39672.98 1.9823e-16
39766.41 2.442e-16
39859.74 2.4585e-16
39953.17 2.7903e-16
40046.6 2.7481e-16
40139.93 3.1211e-16
40233.36 3.6381e-16
40326.69 4.1177e-16
40420.11 4.4131e-16
40513.54 4.3229e-16
40606.88 3.8439e-16
40700.3 3.396e-16
40793.73 2.9183e-16
40887.06 2.8554e-16
40980.48 2.3496e-16
41073.82 2.4105e-16
41167.24 2.2284e-16
41260.67 2.5046e-16
41354.0 2.2863e-16
41447.43 2.6662e-16
41540.86 2.708e-16
41634.19 3.3263e-16
41727.61 2.9044e-16
41820.95 2.9019e-16
41914.38 2.2724e-16
42007.8 2.5669e-16
42101.14 2.2116e-16
42194.56 2.4478e-16
42287.99 1.9841e-16
42381.32 2.2917e-16
42474.75 2.0312e-16
42568.08 2.1963e-16
42661.5 1.9279e-16
42754.93 2.2044e-16
42848.26 1.8567e-16
42941.69 2.0779e-16
43035.12 1.5341e-16
43128.45 2.0946e-16
43221.88 1.9419e-16
43315.21 2.6505e-16
43408.64 1.8917e-16
43502.06 2.0662e-16
43595.39 1.7766e-16
43688.82 2.603e-16
43782.25 2.3376e-16
43875.58 2.1744e-16
43969.01 1.2545e-16
44062.34 1.308e-16
44155.76 6.7392e-17
44249.19 1.3892e-16
44342.52 1.3194e-16
44435.95 2.2199e-16
44529.38 1.7072e-16
44622.71 1.8467e-16
44716.14 1.1429e-16
44809.47 1.8246e-16
44902.9 1.7595e-16
44996.32 2.5895e-16
45089.65 2.0744e-16
45183.08 2.2816e-16
45276.51 1.6413e-16
45369.84 2.1214e-16
45463.27 1.6929e-16
45556.6 2.1547e-16
45650.03 1.9829e-16
45743.45 2.7037e-16
45836.78 2.4387e-16
45930.21 2.8213e-16
46023.64 2.6545e-16
46116.97 3.2791e-16
46210.4 2.9138e-16
46303.73 3.058e-16
46397.16 2.0307e-16
46490.58 2.5288e-16
46583.91 1.6174e-16
46677.34 2.4757e-16
46770.77 1.6013e-16
46864.1 2.3839e-16
46957.53 1.8681e-16
47050.86 2.4667e-16
47144.29 1.3203e-16
47238.68 1.6231e-16
47711.06 1.8351e-16
48188.17 2.0492e-16
48670.05 2.2654e-16
49156.75 2.4838e-16
49648.32 2.7044e-16
50144.81 2.9272e-16
50646.26 3.1523e-16
51152.72 3.3795e-16
51498.73 3.5348e-16
51797.78 3.8777e-16
52096.85 4.2473e-16
52395.9 4.2823e-16
52694.96 3.8863e-16
52994.02 3.572e-16
53293.08 3.9822e-16
53592.13 3.7357e-16
53891.19 3.2213e-16
54190.25 3.3079e-16
54489.31 2.9028e-16
54788.37 2.9943e-16
55087.43 3.2881e-16
55386.49 3.2477e-16
55685.54 3.4318e-16
55984.6 3.7581e-16
56283.66 3.9741e-16
56582.73 3.8726e-16
56881.78 4.3744e-16
57180.84 4.287e-16
57479.9 4.2006e-16
57778.96 3.857e-16
58078.01 3.915e-16
58377.08 3.7945e-16
58676.13 3.662e-16
58975.18 3.8068e-16
59274.25 3.9071e-16
59573.3 3.8876e-16
59872.36 4.1645e-16
60171.42 4.9295e-16
60470.48 5.3494e-16
60769.53 5.5779e-16
61068.59 6.1502e-16
61367.65 7.1843e-16
61666.72 1.0703e-15
61965.77 1.1972e-15
62264.82 1.3274e-15
62563.89 1.1065e-15
62862.94 1.0232e-15
63162.0 8.3167e-16
63461.07 7.4461e-16
63760.11 6.3754e-16
64059.17 5.9237e-16
64358.24 5.561e-16
64657.29 4.9206e-16
64956.35 4.851e-16
65255.41 4.9279e-16
65554.47 4.5146e-16
65853.53 4.6063e-16
66152.59 4.8648e-16
66451.64 4.8998e-16
66750.71 4.3662e-16
67049.76 4.7309e-16
67348.82 4.6879e-16
67647.88 4.486e-16
67946.93 4.3295e-16
68246.0 4.1586e-16
68545.05 4.7414e-16
68844.11 5.1687e-16
69143.17 5.6687e-16
69442.22 5.4083e-16
69741.29 6.5177e-16
70040.34 6.4439e-16
70339.4 5.5692e-16
70638.47 5.3539e-16
70937.52 5.2134e-16
71236.57 5.4857e-16
71535.64 5.398e-16
71834.69 5.3712e-16
72133.75 5.5762e-16
72432.8 5.8622e-16
72712.29 6.6668e-16
72731.87 5.2897e-16
73030.93 6.1694e-16
73311.59 7.6999e-16
73329.98 6.5571e-16
73910.9 9.0828e-16
74510.21 1.0845e-15
75109.52 1.2581e-15
75708.82 1.3883e-15
76308.14 1.4345e-15
76907.44 1.3421e-15
77506.75 1.2693e-15
78106.07 1.238e-15
78705.37 1.1122e-15
79304.67 9.8148e-16
79903.99 8.5676e-16
80503.29 7.673e-16
81102.61 6.8145e-16
81701.91 5.9462e-16
82301.22 5.6315e-16
82900.53 5.8167e-16
83499.85 6.0458e-16
84099.14 5.9988e-16
84698.45 6.0421e-16
85297.77 6.473e-16
85897.07 6.5801e-16
86496.37 6.1525e-16
87095.68 5.1342e-16
87694.99 4.4365e-16
88294.31 3.7184e-16
88893.61 3.2629e-16
89492.92 3.2849e-16
90092.23 3.27e-16
90691.54 2.705e-16
91290.84 2.4563e-16
91890.14 2.4333e-16
92489.46 2.34e-16
93088.77 2.2985e-16
93688.07 2.316e-16
94287.39 2.34e-16
94886.7 2.2813e-16
95486.01 2.218e-16
96085.32 2.4043e-16
96684.58 2.5861e-16
97283.94 2.2939e-16
97883.21 2.1468e-16
98482.58 2.0992e-16
99081.84 2.0871e-16
99681.2 2.075e-16
100280.48 2.0965e-16
100879.75 2.0445e-16
101479.1 2.0752e-16
102078.37 2.0917e-16
102677.74 2.1148e-16
103277.01 2.1859e-16
103876.27 2.2725e-16
104475.64 2.6772e-16
105074.91 3.3455e-16
105674.27 3.0434e-16
106273.53 2.7283e-16
106872.9 2.6194e-16
107472.17 2.7111e-16
108071.44 2.6761e-16
108670.8 2.7795e-16
109270.07 3.032e-16
109869.43 3.4553e-16
110468.7 3.7745e-16
111068.06 4.338e-16
111667.33 6.2146e-16
112266.6 7.6568e-16
112865.97 7.6927e-16
113465.23 6.41e-16
114064.59 5.3265e-16
114663.86 4.5428e-16
115263.23 4.3943e-16
115862.49 4.5752e-16
116461.76 3.9194e-16
117061.13 3.9651e-16
117660.4 4.0766e-16
118259.75 3.982e-16
118859.02 4.4217e-16
119458.3 4.5769e-16
120057.66 4.6423e-16
120656.92 4.7142e-16
121256.29 4.7327e-16
121855.56 4.8206e-16
122454.92 5.1306e-16
123054.19 5.5419e-16
123653.46 5.5469e-16
124252.82 5.6775e-16
124852.09 5.927e-16
125451.45 6.2169e-16
126050.72 6.5816e-16
126649.99 6.8406e-16
127249.35 7.3285e-16
127848.62 9.9961e-16
128447.99 9.0307e-16
129047.25 6.5941e-16
129646.61 5.8826e-16
130245.88 5.7641e-16
130845.16 5.6853e-16
131444.52 5.7709e-16
132043.78 5.7685e-16
132643.14 6.0251e-16
133242.42 5.8507e-16
133841.78 5.633e-16
134441.04 5.946e-16
135040.31 6.216e-16
135639.68 6.0442e-16
136238.95 5.9874e-16
136838.3 5.9333e-16
137437.58 5.656e-16
138036.94 5.8273e-16
138636.21 5.3912e-16
139235.47 5.0052e-16
139834.85 5.1051e-16
140350.53 5.8195e-16
141235.48 5.9539e-16
142120.53 5.998e-16
143005.49 5.9856e-16
143890.44 5.978e-16
144775.4 5.8779e-16
145660.45 5.9085e-16
146545.41 5.834e-16
147430.36 5.908e-16
148315.41 6.3135e-16
149200.37 5.7186e-16
150085.31 5.7236e-16
150970.28 5.6578e-16
151855.33 5.6786e-16
152740.29 5.6471e-16
153625.23 5.6701e-16
154510.28 5.9831e-16
155395.25 8.1295e-16
156280.19 7.4661e-16
157165.24 5.6309e-16
158050.2 5.384e-16
158935.15 5.3906e-16
159820.11 5.3518e-16
160705.18 5.3393e-16
161590.11 5.3167e-16
162475.07 5.3825e-16
163360.03 5.7359e-16
164245.08 5.8961e-16
165130.04 5.7111e-16
166015.0 5.8499e-16
166900.05 5.9033e-16
167785.0 5.9494e-16
168669.96 5.9521e-16
169555.01 6.3074e-16
170439.96 6.8601e-16
171324.92 6.4671e-16
172209.87 6.2393e-16
173094.92 6.2976e-16
173979.88 6.2996e-16
174864.82 6.1697e-16
175749.87 6.0452e-16
176634.84 6.066e-16
177519.78 6.1661e-16
178404.83 6.3321e-16
179289.79 6.1571e-16
180174.75 6.0285e-16
181059.7 6.0472e-16
181944.75 6.1418e-16
182829.71 5.994e-16
183714.66 6.0129e-16
184599.73 6.5445e-16
185484.69 6.2308e-16
186369.62 7.1437e-16
187254.58 9.532e-16
188139.64 6.8902e-16
189024.59 6.4633e-16
189909.55 6.4733e-16
190794.6 6.5662e-16
191679.55 6.8259e-16
192564.51 6.7048e-16
193449.47 7.1625e-16
194334.52 6.8685e-16
195219.47 6.9644e-16
196104.43 6.9416e-16
196989.48 7.3746e-16
198390.89 6.2547e-16
200084.73 7.989e-16
201779.55 7.4825e-16
203475.35 7.0281e-16
205172.0 7.9373e-16
206869.52 8.9369e-16
208568.0 7.5175e-16
210267.38 8.1129e-16
211967.69 8.8022e-16
213668.98 8.2777e-16
215371.13 7.8834e-16
217074.26 8.643e-16
218778.25 9.1432e-16
220483.19 8.8324e-16
222189.11 8.4678e-16
223895.9 8.8566e-16
225603.66 9.2922e-16
227312.38 9.3133e-16
229021.97 9.17e-16
230732.62 9.1379e-16
232444.05 9.5625e-16
234156.51 9.8615e-16
235869.97 9.8389e-16
237584.29 9.7436e-16
239299.56 1.013e-15
241015.81 1.0512e-15
242732.92 1.1125e-15
244451.1 1.0798e-15
246170.16 1.0832e-15
247890.27 1.1177e-15
249611.22 1.1474e-15
251333.19 1.1653e-15
253056.09 1.1871e-15
254779.95 1.1909e-15
256504.78 1.215e-15
258230.61 1.243e-15
259957.37 1.25e-15
261685.1 1.2701e-15
263413.79 1.2794e-15
265143.45 1.273e-15
266874.19 1.2805e-15
268605.77 1.2937e-15
270338.33 1.3172e-15
272071.93 1.3403e-15
273806.54 1.3223e-15
275541.99 1.3387e-15
277278.49 1.3367e-15
279015.99 1.3603e-15
280754.54 1.3786e-15
282494.03 1.4107e-15
284234.42 1.5005e-15
285975.93 1.4297e-15
287718.35 1.5278e-15
289461.79 1.4286e-15
291206.23 1.406e-15
292951.63 1.4674e-15
294698.08 1.4612e-15
296445.5 1.4729e-15
298193.89 1.4531e-15
299943.33 1.5016e-15
301693.86 1.4789e-15
303445.32 1.454e-15
305197.78 1.5069e-15
306951.18 1.5504e-15
308705.75 1.5022e-15
310461.19 1.5053e-15
312217.75 1.5378e-15
313975.22 1.4941e-15
315733.83 1.5254e-15
317493.43 1.4787e-15
319253.95 1.464e-15
321015.57 1.515e-15
322778.26 1.6218e-15
324541.97 1.5596e-15
326306.7 1.4644e-15
328072.43 1.5334e-15
329839.15 1.4737e-15
331606.96 1.5015e-15
333375.92 1.6131e-15
335145.72 1.7094e-15
336916.7 1.6055e-15
