# col1 col2
# An Atlas of Galaxy Spectral Energy Distributions from the Ultraviolet to the Mid-Infrared
# Brown et al. (2014)
# http://dx.doi.org/10.5072/03/529D3551F0117
# 
# Column 1 : Restframe Wavelength (Angstrom)
# Column 2 : Flux per unit wavelength (ergs/s/cm^2/Angstrom)
# Column 3 : Observed wavelength (Angstrom)
# Column 4 : Source (0 = model, 1 = Optical Spectrum, 2 = Akari, 3 = Spitzer IRS)
# 
100.09 3.8072e-26
101.95 5.883e-26
104.09 8.2338e-26
106.02 1.1738e-25
107.99 1.6967e-25
110.0 2.8158e-25
114.13 5.1357e-25
117.87 8.7217e-25
120.89 3.6949e-24
125.14 5.789e-24
126.88 7.0081e-24
128.05 7.8271e-24
131.04 1.0224e-23
131.95 1.2607e-23
134.09 1.4812e-23
136.9 2.1558e-23
140.09 2.7265e-23
143.02 7.7732e-23
147.03 2.1311e-22
151.15 2.7454e-22
155.02 3.5449e-22
159.0 4.5772e-22
161.96 5.4651e-22
166.11 6.9599e-22
169.98 8.6219e-22
173.14 1.013e-21
177.17 1.2377e-21
180.05 1.4276e-21
182.14 1.5725e-21
185.95 1.8863e-21
191.16 2.3475e-21
193.82 2.6829e-21
197.88 3.1521e-21
202.02 3.7034e-21
204.83 4.1649e-21
210.09 4.7929e-21
215.97 6.1745e-21
219.99 7.1056e-21
223.05 7.7732e-21
227.19 8.9043e-21
229.82 1.4441e-20
234.1 2.4638e-20
240.1 3.4802e-20
246.26 3.6949e-20
252.0 4.4015e-20
257.27 4.0328e-20
260.25 4.9386e-20
263.87 5.5539e-20
268.78 6.034e-20
273.78 6.4953e-20
278.87 6.9759e-20
284.05 7.544e-20
290.0 7.8271e-20
296.07 8.6021e-20
300.88 8.9454e-20
307.89 9.9221e-20
317.98 1.1392e-19
327.64 1.2665e-19
338.37 1.3887e-19
347.85 1.5052e-19
356.78 1.6353e-19
365.93 1.789e-19
375.31 1.9037e-19
384.94 1.9661e-19
394.82 2.1858e-19
404.94 2.3638e-19
414.38 2.4866e-19
422.08 2.568e-19
429.93 2.6706e-19
440.96 2.8682e-19
451.23 3.0102e-19
459.62 3.1089e-19
470.32 3.2855e-19
480.17 3.5124e-19
490.23 3.6526e-19
500.49 3.9683e-19
506.29 5.8157e-19
512.15 2.0446e-18
520.47 2.2213e-18
530.15 2.4525e-18
540.0 2.4356e-18
550.04 3.8159e-18
560.27 4.8151e-18
569.37 5.7227e-18
579.96 5.6053e-18
589.38 7.3893e-18
600.34 7.9543e-18
610.09 9.9908e-18
620.01 1.1792e-17
630.08 1.3292e-17
640.32 1.3759e-17
650.72 1.6391e-17
658.26 1.8014e-17
664.35 1.9436e-17
675.14 2.0073e-17
684.53 2.0352e-17
695.66 2.7454e-17
705.34 2.6583e-17
716.8 3.3159e-17
726.77 3.5286e-17
735.18 3.7377e-17
745.41 4.3511e-17
755.78 4.749e-17
764.53 5.1476e-17
775.17 5.7227e-17
784.14 6.3038e-17
795.05 6.6773e-17
804.26 7.0893e-17
815.45 7.4405e-17
824.89 8.3292e-17
834.44 6.8802e-17
844.1 9.0075e-17
855.85 9.4103e-17
865.76 1.0294e-16
875.78 1.121e-16
885.92 1.2405e-16
894.12 1.3262e-16
904.47 1.3415e-16
914.95 2.1164e-16
925.54 1.5798e-15
934.11 3.4722e-15
944.92 6.3621e-15
955.86 8.445e-15
964.71 9.3886e-15
975.88 1.5367e-15
984.91 7.3893e-15
994.02 7.936e-15
1005.53 1.1577e-14
1014.84 1.1577e-14
1024.23 5.8966e-15
1036.09 8.8227e-15
1045.67 1.5403e-14
1055.35 1.4744e-14
1065.11 1.1792e-14
1074.97 1.3983e-14
1084.91 1.1497e-14
1094.95 1.4983e-14
1105.09 1.4015e-14
1115.31 1.3602e-14
1125.63 1.1738e-14
1136.05 1.5227e-14
1143.92 1.4048e-14
1154.5 1.4744e-14
1165.19 1.4983e-14
1175.97 9.4973e-15
1184.12 1.4812e-14
1195.08 1.2012e-14
1206.13 8.6021e-15
1214.49 6.6161e-15
1225.73 1.1956e-14
1234.23 1.5762e-14
1245.65 1.6504e-14
1254.28 1.5871e-14
1265.89 1.4983e-14
1274.66 1.7402e-14
1286.46 1.7807e-14
1295.38 1.421e-14
1304.36 1.4744e-14
1316.42 1.7807e-14
1325.55 1.685e-14
1334.74 1.551e-14
1343.99 1.7482e-14
1356.42 1.7163e-14
1365.83 1.5617e-14
1375.29 1.5908e-14
1384.83 1.5944e-14
1394.43 1.2636e-14
1404.09 1.3446e-14
1413.83 1.488e-14
1423.63 1.4983e-14
1433.49 1.5367e-14
1443.43 1.5981e-14
1446.76 1.5981e-14
1453.44 1.5581e-14
1463.51 1.4408e-14
1473.65 1.471e-14
1483.87 1.4812e-14
1494.16 1.488e-14
1504.51 1.3855e-14
1511.46 1.2291e-14
1518.43 1.302e-14
1525.44 1.314e-14
1536.02 1.1288e-14
1546.66 1.1631e-14
1553.8 1.1314e-14
1564.57 1.2039e-14
1575.42 1.293e-14
1586.34 1.3354e-14
1593.66 1.3508e-14
1604.71 1.3571e-14
1615.83 1.3571e-14
1623.29 1.311e-14
1634.54 1.4048e-14
1645.87 1.421e-14
1653.47 1.3633e-14
1664.93 1.4508e-14
1672.61 1.3508e-14
1676.47 1.4846e-14
1684.21 1.5018e-14
1695.88 1.421e-14
1703.71 1.3823e-14
1715.52 1.308e-14
1723.44 1.305e-14
1735.38 1.3855e-14
1743.39 1.3539e-14
1755.48 1.4145e-14
1763.58 1.3477e-14
1775.81 1.3262e-14
1784.0 1.3633e-14
1796.37 1.4309e-14
1804.66 1.4441e-14
1812.99 1.305e-14
1825.56 1.3602e-14
1833.99 1.314e-14
1846.7 1.2039e-14
1855.22 1.2095e-14
1863.78 1.2434e-14
1876.7 1.3415e-14
1885.37 1.2123e-14
1894.07 1.1445e-14
1902.81 1.2491e-14
1916.0 1.1792e-14
1924.84 1.1445e-14
1933.73 1.2123e-14
1947.13 1.2549e-14
1956.12 1.1497e-14
1965.15 1.2665e-14
1974.22 1.317e-14
1983.33 1.2348e-14
1997.08 1.2095e-14
2006.3 1.2607e-14
2015.56 1.232e-14
2024.86 1.29e-14
2034.21 1.1956e-14
2043.6 1.2377e-14
2053.03 1.1902e-14
2067.26 1.2039e-14
2072.03 1.29e-14
2076.81 1.182e-14
2086.39 1.2434e-14
2096.02 1.1765e-14
2105.7 1.2095e-14
2115.42 1.2207e-14
2125.18 1.2405e-14
2134.99 1.1929e-14
2144.84 1.1738e-14
2154.74 1.2263e-14
2164.69 1.2123e-14
2174.68 1.2012e-14
2184.72 1.1711e-14
2194.8 1.2151e-14
2204.93 1.1956e-14
2215.11 1.1631e-14
2225.34 1.1314e-14
2235.61 1.1657e-14
2245.93 1.1495e-14
2256.29 1.1125e-14
2266.71 1.1354e-14
2277.17 1.1454e-14
2282.42 1.1584e-14
2292.96 1.0932e-14
2303.54 1.1131e-14
2314.17 1.0748e-14
2324.85 8.9158e-15
2335.59 1.0209e-14
2346.37 1.0158e-14
2357.2 1.0486e-14
2362.63 1.0105e-14
2373.54 1.0147e-14
2384.49 9.8209e-15
2395.5 1.0115e-14
2406.55 9.8124e-15
2417.66 9.8989e-15
2423.24 1.0151e-14
2434.42 9.8017e-15
2445.66 1.0095e-14
2456.95 1.0044e-14
2462.61 9.9272e-15
2473.98 9.7192e-15
2485.4 9.8274e-15
2496.87 8.9586e-15
2502.63 9.8661e-15
2514.18 9.2459e-15
2519.97 9.5907e-15
2525.78 9.3057e-15
2537.44 9.3015e-15
2543.29 9.1086e-15
2555.03 9.4244e-15
2566.82 9.3122e-15
2572.74 9.5708e-15
2584.61 9.5005e-15
2596.54 9.4307e-15
2602.53 9.2351e-15
2614.54 9.1461e-15
2626.61 9.2689e-15
2632.67 9.3309e-15
2644.82 9.632e-15
2657.03 9.6496e-15
2663.15 9.1496e-15
2675.44 9.3798e-15
2687.79 9.3321e-15
2693.99 9.0339e-15
2706.42 9.0711e-15
2712.66 8.8829e-15
2725.18 8.899e-15
2737.76 9.0808e-15
2744.07 8.4726e-15
2756.74 8.527e-15
2763.09 8.6236e-15
2775.85 8.8403e-15
2782.25 8.6369e-15
2795.09 7.7828e-15
2807.99 8.0894e-15
2814.46 8.7057e-15
2827.46 8.7615e-15
2833.97 8.423e-15
2847.05 8.3993e-15
2853.62 8.301e-15
2866.79 8.5684e-15
2873.4 8.4877e-15
2886.66 8.4637e-15
2893.32 8.3839e-15
2906.67 8.5746e-15
2926.82 8.4113e-15
2947.11 8.2511e-15
2967.53 8.2634e-15
2988.1 8.1998e-15
3008.82 8.1366e-15
3029.67 8.1298e-15
3050.67 8.0485e-15
3071.82 7.9863e-15
3093.11 7.9064e-15
3107.39 7.8474e-15
3128.93 7.7331e-15
3150.62 7.7086e-15
3172.46 7.6312e-15
3187.1 7.4018e-15
3209.19 7.4808e-15
3231.44 7.304e-15
3246.35 7.3841e-15
3268.86 7.3944e-15
3291.51 7.3199e-15
3306.71 7.2651e-15
3321.97 7.5157e-15
3329.63 7.5481e-15
3337.3 7.391e-15
3345.0 7.2371e-15
3352.71 7.3864e-15
3360.44 7.1828e-15
3368.18 7.1971e-15
3375.95 6.9186e-15
3383.73 7.0288e-15
3391.53 7.2568e-15
3399.35 7.4406e-15
3407.18 7.0222e-15
3415.04 7.1012e-15
3422.91 7.3484e-15
3430.8 7.2787e-15
3438.71 7.3099e-15
3446.64 6.9787e-15
3454.58 7.0735e-15
3462.55 6.8311e-15
3470.53 6.9719e-15
3478.53 6.7953e-15
3486.55 6.7931e-15
3494.59 6.9171e-15
3502.64 6.9468e-15
3510.72 6.7552e-15
3518.81 6.7842e-15
3526.92 6.7975e-15
3535.05 6.9376e-15
3543.2 7.0156e-15
3551.37 7.0618e-15
3559.55 6.9466e-15
3567.76 6.9283e-15
3575.99 6.5536e-15
3584.23 6.4467e-15
3592.49 6.4149e-15
3600.77 6.7149e-15
3609.07 6.6205e-15
3617.39 6.6949e-15
3625.73 6.9278e-15
3634.09 6.9095e-15
3642.47 6.939e-15
3650.86 6.7166e-15
3650.96 4.9161e-15
3653.64 7.5574e-15
3656.32 7.717e-15
3658.99 6.6106e-15
3661.67 6.2558e-15
3664.35 6.9717e-15
3667.03 5.7807e-15
3669.7 5.9833e-15
3672.38 6.9993e-15
3675.06 4.9452e-15
3677.74 7.9828e-15
3680.41 8.4256e-15
3683.09 5.6872e-15
3685.77 8.3074e-15
3688.45 7.213e-15
3691.12 6.3149e-15
3693.8 6.5252e-15
3696.48 6.8276e-15
3699.16 6.5121e-15
3701.83 6.1369e-15
3704.51 6.7178e-15
3707.19 6.6983e-15
3709.87 5.4563e-15
3712.54 6.5293e-15
3715.22 6.7574e-15
3717.9 8.5596e-15
3720.58 1.2206e-14
3723.25 2.0924e-14
3725.93 3.295e-14
3728.61 3.6992e-14
3731.29 3.197e-14
3733.96 1.7224e-14
3736.64 1.0428e-14
3739.32 9.3176e-15
3742.0 7.2906e-15
3744.67 7.5222e-15
3747.35 6.8274e-15
3750.03 7.5726e-15
3752.71 8.0622e-15
3755.38 6.469e-15
3758.06 8.2811e-15
3760.74 7.3361e-15
3763.42 7.8607e-15
3766.09 7.707e-15
3768.77 8.3029e-15
3771.45 7.1183e-15
3774.13 6.5466e-15
3776.8 8.2347e-15
3779.48 8.2038e-15
3782.16 9.2274e-15
3784.84 8.1878e-15
3787.51 8.1134e-15
3790.19 8.6993e-15
3792.87 8.4656e-15
3795.55 8.39e-15
3798.22 8.1136e-15
3800.9 7.9059e-15
3803.58 8.7278e-15
3806.26 8.3154e-15
3808.93 9.3701e-15
3811.61 8.6621e-15
3814.29 8.4637e-15
3816.97 9.032e-15
3819.64 8.3355e-15
3822.32 8.1499e-15
3825.0 8.2449e-15
3827.68 7.3536e-15
3830.35 7.4427e-15
3833.03 7.7294e-15
3835.71 8.0921e-15
3838.39 5.7245e-15
3841.06 7.8044e-15
3843.74 7.2671e-15
3846.42 8.5287e-15
3849.1 8.9117e-15
3851.77 8.6702e-15
3854.45 9.2002e-15
3857.13 9.7904e-15
3859.81 9.5631e-15
3862.48 9.7551e-15
3865.16 1.0009e-14
3867.84 9.9674e-15
3870.52 9.723e-15
3873.19 9.6652e-15
3875.87 8.737e-15
3878.55 8.1124e-15
3881.23 8.0598e-15
3883.9 7.7464e-15
3886.58 8.8961e-15
3889.26 9.1512e-15
3891.94 8.62e-15
3894.61 8.3448e-15
3897.29 9.0304e-15
3899.97 8.9654e-15
3902.65 8.7447e-15
3905.32 1.011e-14
3908.0 9.8714e-15
3910.68 8.3862e-15
3913.36 1.0435e-14
3916.03 9.6631e-15
3918.71 9.8864e-15
3921.39 1.0084e-14
3924.07 8.9557e-15
3926.74 8.7044e-15
3929.42 9.6386e-15
3932.1 8.9344e-15
3934.78 8.4498e-15
3937.45 7.9666e-15
3940.13 8.6361e-15
3942.81 9.5297e-15
3945.49 9.3755e-15
3948.16 8.6645e-15
3950.84 8.8552e-15
3953.52 9.6666e-15
3956.2 1.0089e-14
3958.87 8.799e-15
3961.55 8.5243e-15
3964.23 7.9635e-15
3966.91 8.3029e-15
3969.58 8.1191e-15
3972.26 8.1322e-15
3974.94 8.9907e-15
3977.62 8.0004e-15
3980.29 8.4773e-15
3982.97 8.5438e-15
3985.65 9.0343e-15
3988.33 9.2834e-15
3991.0 9.4929e-15
3993.68 9.6175e-15
3996.36 9.8896e-15
3999.04 9.3797e-15
4001.71 8.6549e-15
4004.39 9.3076e-15
4007.07 8.6872e-15
4009.75 9.5027e-15
4012.42 9.9191e-15
4015.1 9.7518e-15
4017.78 9.5176e-15
4020.46 9.7043e-15
4023.13 9.2382e-15
4025.81 9.0889e-15
4028.49 8.8229e-15
4031.17 9.8307e-15
4033.84 9.1283e-15
4036.52 9.669e-15
4039.2 9.3269e-15
4041.88 8.7918e-15
4044.55 9.3723e-15
4047.23 9.1489e-15
4049.91 8.6511e-15
4052.59 9.5692e-15
4055.26 9.8071e-15
4057.94 9.9096e-15
4060.62 9.4389e-15
4063.3 9.5083e-15
4065.97 1.0785e-14
4068.65 1.0327e-14
4071.33 1.0804e-14
4074.01 9.8701e-15
4076.68 1.0415e-14
4079.36 9.1413e-15
4082.04 9.0646e-15
4084.72 9.6426e-15
4087.39 9.3099e-15
4090.07 8.3214e-15
4092.75 8.8274e-15
4095.43 9.4382e-15
4098.1 8.9294e-15
4100.78 9.5599e-15
4103.46 9.8325e-15
4106.14 9.0819e-15
4108.81 8.5799e-15
4111.49 8.9232e-15
4114.17 8.8678e-15
4116.85 8.7535e-15
4119.52 9.1279e-15
4122.2 9.0188e-15
4124.88 9.536e-15
4127.56 9.7777e-15
4130.23 9.2541e-15
4132.91 9.1894e-15
4135.59 9.4747e-15
4138.27 9.8023e-15
4140.94 8.7046e-15
4143.62 9.9396e-15
4146.3 9.0931e-15
4148.98 9.678e-15
4151.65 9.9003e-15
4154.33 9.5226e-15
4157.01 9.5233e-15
4159.69 8.9866e-15
4162.36 9.1448e-15
4165.04 8.9402e-15
4167.72 9.3365e-15
4170.4 9.0487e-15
4173.07 9.117e-15
4175.75 9.4042e-15
4178.43 9.3239e-15
4181.11 9.1089e-15
4183.78 9.1178e-15
4186.46 9.8442e-15
4189.14 9.3508e-15
4191.82 9.005e-15
4194.49 9.3144e-15
4197.17 9.1226e-15
4199.85 8.6386e-15
4202.53 8.9584e-15
4205.2 9.06e-15
4207.88 9.2897e-15
4210.56 9.1776e-15
4213.24 8.8691e-15
4215.91 9.215e-15
4218.59 8.7259e-15
4221.27 9.4284e-15
4223.95 8.13e-15
4226.62 9.2645e-15
4229.3 9.0471e-15
4231.98 8.4846e-15
4234.66 8.961e-15
4237.33 8.8979e-15
4240.01 9.2747e-15
4242.69 8.9961e-15
4245.37 9.5882e-15
4248.04 8.6635e-15
4250.72 9.1282e-15
4253.4 8.9102e-15
4256.08 8.9829e-15
4258.75 8.5634e-15
4261.43 8.5001e-15
4264.11 8.9583e-15
4266.79 8.6233e-15
4269.46 8.8545e-15
4272.14 8.8807e-15
4274.82 9.1475e-15
4277.5 9.1781e-15
4280.17 9.311e-15
4282.85 9.2132e-15
4285.53 8.9398e-15
4288.21 8.6632e-15
4290.88 8.8636e-15
4293.56 8.8681e-15
4296.24 8.0402e-15
4298.92 8.1886e-15
4301.59 7.8355e-15
4304.27 8.01e-15
4306.95 8.4435e-15
4309.63 9.0248e-15
4312.3 8.7596e-15
4314.98 8.8742e-15
4317.66 9.1086e-15
4320.34 8.7271e-15
4323.01 8.7127e-15
4325.69 8.2492e-15
4328.37 8.3908e-15
4331.05 8.2399e-15
4333.72 8.9679e-15
4336.4 1.0148e-14
4339.08 1.203e-14
4341.76 1.239e-14
4344.43 1.1015e-14
4347.11 9.4252e-15
4349.79 8.8846e-15
4352.47 8.3165e-15
4355.14 8.5953e-15
4357.82 8.4884e-15
4360.5 8.3623e-15
4363.18 9.2397e-15
4365.85 9.1477e-15
4368.53 9.0624e-15
4371.21 8.4061e-15
4373.89 8.5587e-15
4376.56 8.3105e-15
4379.24 8.7555e-15
4381.92 8.0547e-15
4384.6 8.55e-15
4387.27 8.4932e-15
4389.95 8.2515e-15
4392.63 9.048e-15
4395.31 8.3852e-15
4397.98 8.4103e-15
4400.66 8.4628e-15
4403.34 8.7174e-15
4406.02 8.2325e-15
4408.69 8.4508e-15
4411.37 7.683e-15
4414.05 8.5855e-15
4416.73 9.4574e-15
4419.4 8.8818e-15
4422.08 8.5023e-15
4424.76 9.2962e-15
4427.44 8.9457e-15
4430.11 8.5697e-15
4432.79 8.7258e-15
4435.47 8.8943e-15
4438.15 9.0659e-15
4440.82 8.6752e-15
4443.5 9.242e-15
4446.18 9.1728e-15
4448.86 9.2145e-15
4451.53 8.9406e-15
4454.21 8.9877e-15
4456.89 8.8757e-15
4459.57 8.5114e-15
4462.24 8.9096e-15
4464.92 8.6191e-15
4467.6 8.7321e-15
4470.28 8.4799e-15
4472.95 9.0841e-15
4475.63 9.0314e-15
4478.31 8.8376e-15
4480.99 9.2551e-15
4483.66 8.6517e-15
4486.34 8.4709e-15
4489.02 8.5587e-15
4491.69 9.2606e-15
4494.37 9.3423e-15
4497.05 9.8199e-15
4499.73 9.0653e-15
4502.4 9.4321e-15
4505.08 9.4658e-15
4507.76 9.7792e-15
4510.44 9.4432e-15
4513.11 9.1166e-15
4515.79 8.6832e-15
4518.47 8.7882e-15
4521.15 8.798e-15
4523.82 8.4039e-15
4526.5 8.2934e-15
4529.18 8.4791e-15
4531.86 8.806e-15
4534.53 9.1318e-15
4537.21 9.4177e-15
4539.89 8.6209e-15
4542.57 8.5782e-15
4545.24 9.1609e-15
4547.92 8.6476e-15
4550.6 8.6441e-15
4553.28 8.7321e-15
4555.95 8.7931e-15
4558.63 9.131e-15
4561.31 9.2068e-15
4563.99 9.1897e-15
4566.66 9.005e-15
4569.34 8.5404e-15
4572.02 8.6189e-15
4574.7 9.1146e-15
4577.37 9.3071e-15
4580.05 8.9154e-15
4582.73 8.8381e-15
4585.41 8.2977e-15
4588.08 8.4786e-15
4590.76 8.6877e-15
4593.44 8.8644e-15
4596.12 8.5209e-15
4598.79 9.2833e-15
4601.47 9.2379e-15
4604.15 8.6238e-15
4606.83 9.3598e-15
4609.5 9.2184e-15
4612.18 8.7837e-15
4614.86 9.584e-15
4617.54 9.1438e-15
4620.21 9.6175e-15
4622.89 9.5818e-15
4625.57 9.4105e-15
4628.25 9.6537e-15
4630.92 9.2856e-15
4633.6 8.9804e-15
4636.28 8.6982e-15
4638.96 8.6601e-15
4641.63 9.1808e-15
4644.31 9.115e-15
4646.99 9.4076e-15
4649.67 9.2485e-15
4652.34 8.7956e-15
4655.02 9.3537e-15
4657.7 8.8559e-15
4660.38 8.6583e-15
4663.05 8.732e-15
4665.73 8.7429e-15
4668.41 9.3944e-15
4671.09 8.9837e-15
4673.76 8.7747e-15
4676.44 8.6164e-15
4679.12 8.9661e-15
4681.8 9.2569e-15
4684.47 9.4016e-15
4687.15 8.7464e-15
4689.83 8.8745e-15
4692.51 9.0648e-15
4695.18 8.8489e-15
4697.86 9.113e-15
4700.54 8.2509e-15
4703.22 9.1135e-15
4705.89 8.2331e-15
4708.57 8.2873e-15
4711.25 8.2894e-15
4713.93 8.4191e-15
4716.6 8.4481e-15
4719.28 8.6464e-15
4721.96 8.4775e-15
4724.64 8.152e-15
4727.31 8.0085e-15
4729.99 8.3041e-15
4732.67 8.1397e-15
4735.35 8.5182e-15
4738.02 8.8799e-15
4740.7 8.3437e-15
4743.38 8.8305e-15
4746.06 8.2572e-15
4748.73 9.1565e-15
4751.41 8.5008e-15
4754.09 8.182e-15
4756.77 8.6628e-15
4759.44 8.6342e-15
4762.12 8.0536e-15
4764.8 8.3454e-15
4767.48 8.2288e-15
4770.15 8.1664e-15
4772.83 7.9487e-15
4775.51 8.6529e-15
4778.19 8.6813e-15
4780.86 8.7303e-15
4783.54 7.9191e-15
4786.22 8.5243e-15
4788.9 8.4466e-15
4791.57 8.2711e-15
4794.25 8.8518e-15
4796.93 8.7966e-15
4799.61 8.4794e-15
4802.28 8.3522e-15
4804.96 8.1389e-15
4807.64 8.3256e-15
4810.32 8.8147e-15
4812.99 7.9932e-15
4815.67 8.2053e-15
4818.35 9.029e-15
4821.03 8.4658e-15
4823.7 8.413e-15
4826.38 8.8385e-15
4829.06 7.7481e-15
4831.74 8.5109e-15
4834.41 7.9958e-15
4837.09 7.6004e-15
4839.77 8.2188e-15
4842.45 8.1892e-15
4845.12 7.7442e-15
4847.8 8.6244e-15
4850.48 7.7585e-15
4853.16 9.165e-15
4855.83 1.1257e-14
4858.51 1.6162e-14
4861.19 2.0275e-14
4863.87 2.0224e-14
4866.54 1.491e-14
4869.22 1.0688e-14
4871.9 8.2771e-15
4874.58 8.0061e-15
4877.25 7.9796e-15
4879.93 7.5401e-15
4882.61 7.934e-15
4885.29 7.9585e-15
4887.96 7.5903e-15
4890.64 8.274e-15
4893.32 7.9855e-15
4896.0 7.8913e-15
4898.67 8.6007e-15
4901.35 8.5049e-15
4904.03 8.3383e-15
4906.71 7.66e-15
4909.38 7.5272e-15
4912.06 8.2581e-15
4914.74 8.2533e-15
4917.42 8.1168e-15
4920.09 7.9388e-15
4922.77 7.455e-15
4925.45 8.0805e-15
4928.13 7.902e-15
4930.8 8.0391e-15
4933.48 8.305e-15
4936.16 8.2694e-15
4938.84 8.2398e-15
4941.51 7.8696e-15
4944.19 8.1231e-15
4946.87 8.4943e-15
4949.55 9.0166e-15
4952.22 8.7732e-15
4954.9 1.0465e-14
4957.58 1.1983e-14
4960.26 1.2559e-14
4962.93 1.1094e-14
4965.61 9.6351e-15
4968.29 8.0947e-15
4970.97 8.2255e-15
4973.64 7.7538e-15
4976.32 8.0358e-15
4979.0 8.2109e-15
4981.68 8.177e-15
4984.35 8.4007e-15
4987.03 8.1784e-15
4989.71 7.8464e-15
4992.39 8.6161e-15
4995.06 8.0717e-15
4997.74 8.8825e-15
5000.42 1.0724e-14
5003.1 1.5293e-14
5005.77 2.0125e-14
5008.45 2.116e-14
5011.13 1.6376e-14
5013.81 1.2114e-14
5016.48 9.712e-15
5019.16 8.3114e-15
5021.84 8.1112e-15
5024.52 8.2985e-15
5027.19 7.7945e-15
5029.87 8.3765e-15
5032.55 7.7446e-15
5035.23 8.388e-15
5037.9 8.7344e-15
5040.58 7.9278e-15
5043.26 8.0185e-15
5045.94 7.9437e-15
5048.61 8.0922e-15
5051.29 7.9431e-15
5053.97 8.8468e-15
5056.65 8.4146e-15
5059.32 8.051e-15
5062.0 7.778e-15
5064.68 8.8029e-15
5067.36 7.9407e-15
5070.03 7.8895e-15
5072.71 7.8426e-15
5075.39 7.8691e-15
5078.07 7.9691e-15
5080.74 7.4734e-15
5083.42 7.756e-15
5086.1 8.424e-15
5088.78 7.5274e-15
5091.45 8.1271e-15
5094.13 7.7612e-15
5096.81 7.9603e-15
5099.49 8.1808e-15
5102.16 8.3356e-15
5104.84 7.9171e-15
5107.52 7.4796e-15
5110.2 7.9795e-15
5112.87 7.578e-15
5115.55 7.917e-15
5118.23 7.5254e-15
5120.91 7.8195e-15
5123.58 7.9372e-15
5126.26 7.4833e-15
5128.94 7.3459e-15
5131.62 7.8884e-15
5134.29 8.2178e-15
5136.97 7.9709e-15
5139.65 7.864e-15
5142.33 7.6631e-15
5145.0 7.5902e-15
5147.68 7.7137e-15
5150.36 7.827e-15
5153.04 7.8157e-15
5155.71 7.8651e-15
5158.39 7.7726e-15
5161.07 8.5136e-15
5163.75 7.9289e-15
5166.42 7.826e-15
5169.1 7.6197e-15
5171.78 6.8395e-15
5174.46 7.2972e-15
5177.13 7.686e-15
5179.81 6.978e-15
5182.49 7.1372e-15
5185.17 7.4587e-15
5187.84 7.8067e-15
5190.52 7.6494e-15
5193.2 7.6617e-15
5195.88 8.3721e-15
5198.55 7.9999e-15
5201.23 8.2923e-15
5203.91 8.5348e-15
5206.59 7.3704e-15
5209.26 7.4627e-15
5211.94 8.3817e-15
5214.62 7.4401e-15
5217.3 7.7702e-15
5219.97 7.9136e-15
5222.65 8.0287e-15
5225.33 7.977e-15
5228.01 7.8834e-15
5230.68 7.1671e-15
5233.36 7.8645e-15
5236.04 7.8268e-15
5238.72 7.4927e-15
5241.39 7.5737e-15
5244.07 8.1238e-15
5246.75 7.5272e-15
5249.43 7.2796e-15
5252.1 7.6186e-15
5254.78 6.988e-15
5257.46 7.4626e-15
5260.14 7.2508e-15
5262.81 7.574e-15
5265.49 6.9769e-15
5268.17 7.6259e-15
5270.85 7.5324e-15
5273.52 7.6437e-15
5276.2 7.0963e-15
5278.88 7.6903e-15
5281.56 7.1746e-15
5284.23 7.7536e-15
5286.91 7.4969e-15
5289.59 7.812e-15
5292.27 7.6279e-15
5294.94 8.148e-15
5297.62 8.0311e-15
5300.3 7.7022e-15
5302.98 7.8708e-15
5305.65 7.8899e-15
5308.33 7.7287e-15
5311.01 6.9776e-15
5313.69 8.1445e-15
5316.36 8.0123e-15
5319.04 7.4704e-15
5321.72 7.6701e-15
5324.4 7.8275e-15
5327.07 7.5556e-15
5329.75 7.3859e-15
5332.43 7.6019e-15
5335.11 7.1695e-15
5337.78 8.0384e-15
5340.46 7.4135e-15
5343.14 7.1574e-15
5345.82 7.2044e-15
5348.49 7.7626e-15
5351.17 7.1972e-15
5353.85 7.741e-15
5356.53 8.0942e-15
5359.2 8.2695e-15
5361.88 8.2244e-15
5364.56 7.8684e-15
5367.24 7.4163e-15
5369.91 7.5319e-15
5372.59 7.29e-15
5375.27 8.0432e-15
5377.95 7.7674e-15
5380.62 7.8396e-15
5383.3 7.9293e-15
5385.98 8.0639e-15
5388.66 7.6804e-15
5391.33 7.1757e-15
5394.01 7.2615e-15
5396.69 7.3627e-15
5399.37 7.6504e-15
5402.04 7.1501e-15
5404.72 7.6968e-15
5407.4 7.9839e-15
5410.08 7.8585e-15
5412.75 8.0899e-15
5415.43 7.5884e-15
5418.11 8.1538e-15
5420.79 7.1662e-15
5423.46 7.8793e-15
5426.14 7.5463e-15
5428.82 7.9161e-15
5431.5 7.977e-15
5434.17 7.3546e-15
5436.85 7.3062e-15
5439.53 7.5262e-15
5442.21 7.4535e-15
5444.88 8.0471e-15
5447.56 7.5964e-15
5450.24 7.3949e-15
5452.92 7.6715e-15
5455.59 7.7547e-15
5458.27 7.3546e-15
5460.95 7.3432e-15
5463.63 7.996e-15
5466.3 7.0555e-15
5468.98 7.5171e-15
5471.66 7.2895e-15
5474.34 7.5386e-15
5477.01 7.7556e-15
5479.69 7.6695e-15
5482.37 7.1578e-15
5485.05 7.8254e-15
5487.72 7.7022e-15
5490.4 7.1458e-15
5493.08 7.3182e-15
5495.76 7.1778e-15
5498.43 7.1901e-15
5501.11 7.6719e-15
5503.79 7.6343e-15
5506.47 7.5413e-15
5509.14 7.5942e-15
5511.82 7.2003e-15
5514.5 7.3476e-15
5517.17 7.36e-15
5519.85 7.4034e-15
5522.53 7.5045e-15
5525.21 8.2262e-15
5527.88 7.6403e-15
5530.56 7.4832e-15
5533.24 8.4928e-15
5535.92 8.0696e-15
5538.59 7.2022e-15
5541.27 7.4245e-15
5543.95 7.8345e-15
5546.63 7.7874e-15
5549.3 8.0234e-15
5551.98 7.6967e-15
5554.66 7.7956e-15
5557.34 8.0847e-15
5560.01 7.694e-15
5562.69 7.841e-15
5565.37 7.5271e-15
5568.05 7.335e-15
5570.72 7.6309e-15
5573.4 7.2225e-15
5576.08 7.4332e-15
5578.76 7.3787e-15
5581.43 7.3798e-15
5584.11 7.2657e-15
5586.79 7.0388e-15
5589.47 6.7534e-15
5592.14 6.7832e-15
5594.82 7.0684e-15
5597.5 7.1245e-15
5600.18 7.4568e-15
5602.85 7.5331e-15
5605.53 7.4046e-15
5608.21 7.4844e-15
5610.89 7.4861e-15
5613.56 7.3732e-15
5616.24 7.0555e-15
5618.92 7.0805e-15
5621.6 7.1868e-15
5624.27 7.2763e-15
5626.95 7.5503e-15
5629.63 6.9507e-15
5632.31 7.3385e-15
5634.98 7.6982e-15
5637.66 7.5896e-15
5640.34 7.851e-15
5643.02 7.5966e-15
5645.69 7.4656e-15
5648.37 6.978e-15
5651.05 7.0395e-15
5653.73 7.9728e-15
5656.4 7.9375e-15
5659.08 7.2881e-15
5661.76 7.3114e-15
5664.44 7.6239e-15
5667.11 7.4108e-15
5669.79 7.2374e-15
5672.47 7.3344e-15
5675.15 7.7047e-15
5677.82 7.9779e-15
5680.5 7.7534e-15
5683.18 7.8409e-15
5685.86 7.6914e-15
5688.53 7.4009e-15
5691.21 7.5393e-15
5693.89 7.4595e-15
5696.57 7.3522e-15
5699.24 7.1885e-15
5701.92 7.1832e-15
5704.6 7.89e-15
5707.28 7.4718e-15
5709.95 7.1985e-15
5712.63 7.3966e-15
5715.31 7.5416e-15
5717.99 7.8193e-15
5720.66 7.5218e-15
5723.34 7.3632e-15
5726.02 7.5782e-15
5728.7 9.5062e-15
5731.37 9.9667e-15
5734.05 1.128e-14
5736.73 8.4839e-15
5739.41 7.2594e-15
5742.08 6.4803e-15
5744.76 6.0774e-15
5747.44 6.9756e-15
5750.12 6.7002e-15
5752.79 7.8198e-15
5755.47 6.7535e-15
5758.15 7.8956e-15
5760.83 7.7494e-15
5763.5 7.9437e-15
5766.18 7.1323e-15
5768.86 7.7264e-15
5771.54 7.4509e-15
5774.21 7.632e-15
5776.89 7.519e-15
5779.57 8.1505e-15
5782.25 7.3148e-15
5784.92 7.7898e-15
5787.6 7.1093e-15
5790.28 6.8345e-15
5792.96 6.6812e-15
5795.63 7.9742e-15
5798.31 7.6466e-15
5800.99 6.9727e-15
5803.67 6.7133e-15
5806.34 7.1985e-15
5809.02 7.5867e-15
5811.7 7.2886e-15
5814.38 8.0338e-15
5817.05 8.0631e-15
5819.73 7.2197e-15
5822.41 6.976e-15
5825.09 7.7293e-15
5827.76 7.6109e-15
5830.44 7.5417e-15
5833.12 7.1409e-15
5835.8 7.9816e-15
5838.47 7.4435e-15
5841.15 7.431e-15
5843.83 7.3882e-15
5846.51 7.0665e-15
5849.18 6.6119e-15
5851.86 7.543e-15
5854.54 6.2316e-15
5857.22 7.1314e-15
5859.89 7.5542e-15
5862.57 7.1806e-15
5865.25 7.1383e-15
5867.93 7.6515e-15
5870.6 7.2609e-15
5873.28 9.1212e-15
5875.96 8.6211e-15
5878.64 8.7591e-15
5881.31 8.3136e-15
5883.99 7.0445e-15
5886.67 6.5633e-15
5889.35 6.428e-15
5892.02 7.1754e-15
5894.7 6.8706e-15
5897.38 6.2776e-15
5900.06 6.6317e-15
5902.73 5.9903e-15
5905.41 6.7056e-15
5908.09 7.4983e-15
5910.77 7.7108e-15
5913.44 7.1304e-15
5916.12 7.232e-15
5918.8 6.7242e-15
5921.48 6.9791e-15
5924.15 7.4505e-15
5926.83 6.8459e-15
5929.51 7.2148e-15
5932.19 7.1091e-15
5934.86 7.2235e-15
5937.54 7.2543e-15
5940.22 7.5838e-15
5942.9 6.7521e-15
5945.57 6.9517e-15
5948.25 6.9347e-15
5950.93 7.1777e-15
5953.61 7.2545e-15
5956.28 6.9926e-15
5958.96 6.7926e-15
5961.64 7.2279e-15
5964.32 7.0305e-15
5966.99 6.8085e-15
5969.67 7.0801e-15
5972.35 6.7998e-15
5975.03 7.1997e-15
5977.7 7.3101e-15
5980.38 7.2948e-15
5983.06 6.7174e-15
5985.74 6.8987e-15
5988.41 7.043e-15
5991.09 6.8639e-15
5993.77 7.0277e-15
5996.45 6.7055e-15
5999.12 6.6955e-15
6001.8 7.0727e-15
6004.48 6.9415e-15
6007.16 7.3007e-15
6009.83 7.3295e-15
6012.51 6.5655e-15
6015.19 6.9576e-15
6017.87 6.7255e-15
6020.54 7.3264e-15
6023.22 7.22e-15
6025.9 6.822e-15
6028.58 7.1876e-15
6031.25 6.9106e-15
6033.93 6.819e-15
6036.61 6.8402e-15
6039.29 7.1188e-15
6041.96 6.8176e-15
6044.64 7.1677e-15
6047.32 7.2942e-15
6050.0 7.2131e-15
6052.67 6.9208e-15
6055.35 6.6022e-15
6058.03 6.6963e-15
6060.71 6.7626e-15
6063.38 6.7911e-15
6066.06 7.4492e-15
6068.74 6.9641e-15
6071.42 7.1115e-15
6074.09 7.1691e-15
6076.77 7.3338e-15
6079.45 6.561e-15
6082.13 7.4018e-15
6084.8 6.6169e-15
6087.48 7.222e-15
6090.16 6.9454e-15
6092.84 6.9803e-15
6095.51 6.483e-15
6098.19 7.0801e-15
6100.87 7.5885e-15
6103.55 6.963e-15
6106.22 6.979e-15
6108.9 6.9843e-15
6111.58 6.6377e-15
6114.26 7.5375e-15
6116.93 7.1402e-15
6119.61 6.5131e-15
6122.29 7.362e-15
6124.97 6.4212e-15
6127.64 7.9063e-15
6130.32 9.6742e-15
6133.0 1.0583e-14
6135.68 8.5039e-15
6138.35 4.3132e-15
6141.03 4.043e-15
6143.71 6.2966e-15
6146.39 6.8289e-15
6149.06 7.3785e-15
6151.74 7.3185e-15
6154.42 7.169e-15
6157.1 7.4045e-15
6159.77 7.7113e-15
6162.45 6.3499e-15
6165.13 7.2738e-15
6167.81 5.4483e-15
6170.48 6.7094e-15
6173.16 6.7578e-15
6175.84 7.4524e-15
6178.52 6.1127e-15
6181.19 6.6732e-15
6183.87 7.1824e-15
6186.55 7.2052e-15
6189.23 6.9242e-15
6191.9 6.9291e-15
6194.58 7.3463e-15
6197.26 6.9031e-15
6199.94 6.9677e-15
6202.61 6.9866e-15
6205.29 7.4647e-15
6207.97 7.5923e-15
6210.65 6.9484e-15
6213.32 7.2131e-15
6216.0 6.7763e-15
6218.68 7.9223e-15
6221.36 6.7844e-15
6224.03 7.0201e-15
6226.71 6.59e-15
6229.39 5.9503e-15
6232.07 6.5564e-15
6234.74 6.2149e-15
6237.42 6.0233e-15
6240.1 6.726e-15
6242.78 6.0957e-15
6245.45 6.0056e-15
6248.13 6.7077e-15
6250.81 6.5639e-15
6253.49 6.6406e-15
6256.16 6.5265e-15
6258.84 6.3587e-15
6261.52 6.4206e-15
6264.2 6.2685e-15
6266.87 6.5009e-15
6269.55 5.9322e-15
6272.23 5.8497e-15
6274.91 6.6983e-15
6277.58 7.0626e-15
6280.26 6.0102e-15
6282.94 5.8566e-15
6285.62 6.202e-15
6288.29 6.892e-15
6290.97 7.4419e-15
6293.65 7.0473e-15
6296.33 8.0072e-15
6299.0 9.2526e-15
6301.68 9.1509e-15
6304.36 8.6798e-15
6307.04 7.9656e-15
6309.71 6.8042e-15
6312.39 6.5379e-15
6315.07 6.5777e-15
6317.75 6.6732e-15
6320.42 6.8809e-15
6323.1 7.2429e-15
6325.78 7.4642e-15
6328.46 6.7701e-15
6331.13 6.9462e-15
6333.81 6.3529e-15
6336.49 6.3025e-15
6339.17 6.8703e-15
6341.84 6.8727e-15
6344.52 6.6766e-15
6347.2 6.3312e-15
6349.88 6.7085e-15
6352.55 6.0703e-15
6355.23 7.2708e-15
6357.91 7.7799e-15
6360.59 7.8898e-15
6363.26 6.8219e-15
6365.94 7.6786e-15
6368.62 6.5855e-15
6371.3 7.4307e-15
6373.97 6.2066e-15
6376.65 7.0393e-15
6379.33 7.37e-15
6382.01 6.0382e-15
6384.68 6.6773e-15
6387.36 6.1618e-15
6390.04 6.4701e-15
6392.72 6.3495e-15
6395.39 7.1647e-15
6398.07 7.2065e-15
6400.75 6.7206e-15
6403.43 6.9807e-15
6406.1 6.4359e-15
6408.78 6.7489e-15
6411.46 5.7443e-15
6414.14 6.5075e-15
6416.81 6.2927e-15
6419.49 6.6803e-15
6422.17 5.935e-15
6424.85 6.1634e-15
6427.52 6.3902e-15
6430.2 6.3101e-15
6432.88 6.5241e-15
6435.56 5.9028e-15
6438.23 6.0663e-15
6440.91 6.554e-15
6443.59 6.1265e-15
6446.27 6.6566e-15
6448.94 6.4489e-15
6451.62 6.683e-15
6454.3 6.7067e-15
6456.98 6.5994e-15
6459.65 6.5067e-15
6462.33 6.2084e-15
6465.01 6.4266e-15
6467.69 6.6452e-15
6470.36 6.7031e-15
6473.04 6.628e-15
6475.72 6.2178e-15
6478.4 6.2591e-15
6481.07 6.5767e-15
6483.75 6.926e-15
6486.43 6.5651e-15
6489.11 6.7455e-15
6491.78 6.521e-15
6494.46 6.4586e-15
6497.14 6.293e-15
6499.82 6.8115e-15
6502.49 6.394e-15
6505.17 6.6507e-15
6507.85 6.0367e-15
6510.53 6.152e-15
6513.2 6.6277e-15
6515.88 6.5655e-15
6518.56 6.8026e-15
6521.24 6.7822e-15
6523.91 6.5256e-15
6526.59 6.7512e-15
6529.27 6.696e-15
6531.95 7.1859e-15
6534.62 6.2855e-15
6537.3 6.3318e-15
6539.98 6.8287e-15
6542.65 9.3072e-15
6545.33 1.1115e-14
6548.01 1.3373e-14
6550.69 1.3364e-14
6553.36 1.3969e-14
6556.04 2.1387e-14
6558.72 3.9656e-14
6561.4 6.0222e-14
6564.07 6.5838e-14
6566.75 5.3172e-14
6569.43 3.2509e-14
6572.11 1.5878e-14
6574.78 1.1744e-14
6577.46 1.1886e-14
6580.14 1.867e-14
6582.82 2.4647e-14
6585.49 2.6991e-14
6588.17 2.0043e-14
6590.85 1.4197e-14
6593.53 8.6122e-15
6596.2 7.8437e-15
6598.88 7.3591e-15
6601.56 6.3001e-15
6604.24 6.8761e-15
6606.91 6.6281e-15
6609.59 7.1341e-15
6612.27 5.9366e-15
6614.95 6.1071e-15
6617.62 6.2897e-15
6620.3 6.6479e-15
6622.98 7.6579e-15
6625.66 6.9445e-15
6628.33 6.3413e-15
6631.01 7.1163e-15
6633.69 6.8988e-15
6636.37 6.7715e-15
6639.04 6.8247e-15
6641.72 7.5133e-15
6644.4 7.9675e-15
6647.08 7.6786e-15
6649.75 7.4226e-15
6658.8 6.3465e-15
6674.15 6.2596e-15
6689.53 6.2454e-15
6704.95 6.2456e-15
6720.41 6.2028e-15
6735.9 6.2748e-15
6751.43 6.1604e-15
6766.99 6.2607e-15
6782.59 6.2898e-15
6798.23 6.1752e-15
6813.9 6.2182e-15
6829.61 6.2615e-15
6845.35 6.1615e-15
6861.13 6.0912e-15
6876.95 6.0216e-15
6892.8 5.9666e-15
6908.69 6.0498e-15
6924.62 6.05e-15
6940.58 6.1768e-15
6956.58 6.2342e-15
6972.62 6.22e-15
6988.69 6.149e-15
7004.8 6.1351e-15
7020.95 6.1211e-15
7037.13 6.178e-15
7053.35 6.293e-15
7069.62 5.9275e-15
7085.91 6.1078e-15
7102.24 5.86e-15
7118.62 5.7665e-15
7135.03 5.7138e-15
7151.48 5.8068e-15
7167.96 5.807e-15
7184.49 5.6881e-15
7201.05 5.5205e-15
7217.65 5.8478e-15
7234.29 5.875e-15
7250.96 5.715e-15
7267.68 5.7681e-15
7284.43 5.755e-15
7301.22 5.7552e-15
7318.05 5.8086e-15
7334.93 5.9578e-15
7351.84 5.917e-15
7368.78 5.8765e-15
7385.77 6.1536e-15
7402.8 6.0694e-15
7419.86 5.9863e-15
7436.96 6.0558e-15
7454.11 5.9592e-15
7471.29 5.9457e-15
7488.51 6.0286e-15
7505.78 6.0706e-15
7523.08 6.1128e-15
7540.42 6.0849e-15
7557.81 6.0433e-15
7575.23 6.0435e-15
7592.69 6.0159e-15
7610.19 5.9335e-15
7627.74 5.812e-15
7645.32 5.866e-15
7662.94 5.8797e-15
7680.61 5.7461e-15
7698.32 5.733e-15
7716.06 5.7069e-15
7733.85 5.6548e-15
7751.68 5.616e-15
7769.55 5.6813e-15
7787.46 5.5266e-15
7805.41 5.5779e-15
7823.4 5.7609e-15
7841.44 5.5655e-15
7859.52 5.6822e-15
7877.63 5.7086e-15
7895.79 5.7484e-15
7914.0 5.6437e-15
7932.24 5.5281e-15
7950.52 5.3776e-15
7968.85 5.4904e-15
7987.22 5.4906e-15
8005.63 5.4656e-15
8024.09 5.6579e-15
8042.59 5.6711e-15
8061.13 5.6452e-15
8079.71 5.4412e-15
8098.34 5.3298e-15
8117.0 5.53e-15
8135.71 5.543e-15
8154.47 5.4295e-15
8173.27 5.2212e-15
8192.11 5.2941e-15
8211.0 5.4551e-15
8229.92 5.3066e-15
8248.89 5.5826e-15
8267.91 5.5571e-15
8286.97 5.4308e-15
8306.07 5.4185e-15
8325.22 5.4689e-15
8344.41 5.3323e-15
8363.65 5.4316e-15
8382.93 5.3696e-15
8402.26 5.4697e-15
8421.62 5.2357e-15
8441.03 5.4324e-15
8460.49 5.3704e-15
8480.0 5.2605e-15
8499.55 5.4455e-15
8519.14 5.3834e-15
8538.78 5.3465e-15
8558.46 4.9555e-15
8578.19 5.3964e-15
8597.97 5.2738e-15
8617.79 5.2618e-15
8637.65 5.3846e-15
8657.56 5.1306e-15
8677.52 4.7883e-15
8697.53 4.8328e-15
8717.57 5.3115e-15
8737.67 5.2509e-15
8757.81 4.9346e-15
8778.0 5.2634e-15
8798.24 5.2879e-15
8818.52 5.1677e-15
8838.85 5.3005e-15
8859.23 5.1681e-15
8879.65 4.9017e-15
8900.12 5.0976e-15
8920.63 5.1096e-15
8941.2 5.098e-15
8961.81 5.0283e-15
8982.47 4.8914e-15
9003.18 4.8579e-15
9023.93 4.3198e-15
9044.73 5.3025e-15
9065.59 5.4513e-15
9086.48 5.0994e-15
9107.43 5.0996e-15
9128.42 4.6297e-15
9149.47 5.03e-15
9170.56 5.0534e-15
9191.7 4.9958e-15
9212.89 5.0422e-15
9234.12 4.5776e-15
9255.41 4.7935e-15
9276.75 5.208e-15
9298.13 4.8383e-15
9319.57 5.0201e-15
9341.05 4.9972e-15
9362.59 4.9402e-15
9384.17 4.9746e-15
9405.8 4.884e-15
9427.48 4.9865e-15
9449.21 4.9296e-15
9471.0 4.9869e-15
9492.83 4.9756e-15
9514.71 4.885e-15
9536.65 4.8404e-15
9558.63 4.5804e-15
9580.67 4.8186e-15
9602.75 4.8971e-15
9624.89 4.8973e-15
9647.08 4.8638e-15
9669.32 4.8528e-15
9691.6 4.8867e-15
9713.95 4.8532e-15
9736.34 4.82e-15
9758.78 4.7981e-15
9781.28 4.7543e-15
9803.82 4.8206e-15
9826.43 4.7876e-15
9849.08 4.7989e-15
9871.79 4.777e-15
9894.54 4.7662e-15
9917.35 4.7446e-15
9940.21 4.7667e-15
9963.13 4.7559e-15
9986.1 4.7342e-15
10032.19 4.6482e-15
10078.49 4.5638e-15
10125.02 4.6813e-15
10171.75 4.6495e-15
10218.7 4.6499e-15
10265.86 4.6503e-15
10289.54 4.6291e-15
10504.99 4.4833e-15
10700.29 4.3212e-15
10899.22 4.0889e-15
11101.86 3.95e-15
11308.26 3.869e-15
11492.0 3.8513e-15
11705.65 3.7549e-15
11895.85 3.6442e-15
12089.15 3.5777e-15
12313.91 3.5124e-15
12513.99 3.4245e-15
12688.07 3.3466e-15
12894.25 3.2629e-15
13103.76 3.2107e-15
13286.05 3.1232e-15
13501.93 3.0733e-15
13689.75 3.0102e-15
13912.2 2.9282e-15
14105.73 2.8158e-15
14301.96 2.758e-15
14500.92 2.7517e-15
14702.65 2.6829e-15
14907.19 2.6953e-15
15114.57 2.6891e-15
15289.59 2.7077e-15
15502.29 2.7015e-15
15717.95 2.64e-15
15899.94 2.5386e-15
16084.06 2.5445e-15
16307.81 2.5328e-15
16496.65 2.4866e-15
16687.68 2.4695e-15
16880.9 2.4244e-15
17115.74 2.3856e-15
17313.93 2.2993e-15
17514.42 2.2522e-15
17717.23 2.1757e-15
17881.16 2.1164e-15
18088.22 2.0258e-15
18297.67 1.9797e-15
18509.54 1.9258e-15
18680.81 1.8476e-15
18897.13 1.8055e-15
19115.95 1.7807e-15
19292.82 1.7282e-15
19516.22 1.6696e-15
19696.81 1.6278e-15
19879.05 1.5871e-15
20109.25 1.5617e-15
20295.3 1.5122e-15
20483.1 1.4914e-15
20720.29 1.4575e-15
20912.0 1.4243e-15
21105.5 1.4015e-15
21300.8 1.3728e-15
21497.88 1.3446e-15
21696.8 1.305e-15
21897.57 1.2871e-15
22100.17 1.2578e-15
22304.67 1.2263e-15
22511.04 1.1934e-15
22719.34 1.1554e-15
22876.81 1.0444e-15
23088.5 1.0295e-15
23302.15 9.1053e-16
23517.74 8.508e-16
23680.77 8.5635e-16
23899.87 7.888e-16
24121.03 7.5885e-16
24288.21 7.5113e-16
24512.96 7.0253e-16
24682.86 6.9189e-16
24819.0 7.0746e-16
24913.15 6.1173e-16
25007.4 6.054e-16
25101.55 5.8904e-16
25195.8 6.1562e-16
25290.05 5.9899e-16
25384.2 6.468e-16
25478.44 6.2684e-16
25572.69 6.3387e-16
25666.84 6.1969e-16
25761.09 6.5092e-16
25855.24 6.2601e-16
25949.49 6.6573e-16
26043.74 6.5789e-16
26137.89 6.3412e-16
26232.14 6.0659e-16
26326.38 6.002e-16
26420.53 6.1156e-16
26514.78 5.9611e-16
26608.93 5.7197e-16
26703.18 5.6612e-16
26797.43 5.2795e-16
26891.58 5.3701e-16
26985.83 4.9894e-16
27080.07 4.9602e-16
27174.22 4.7112e-16
27268.47 4.8537e-16
27362.62 4.8319e-16
27456.87 4.7436e-16
27551.12 4.5637e-16
27645.27 4.7694e-16
27739.52 4.8634e-16
27833.76 5.0177e-16
27927.91 5.1402e-16
28022.16 5.3185e-16
28116.31 5.0095e-16
28210.56 5.1844e-16
28304.81 5.0398e-16
28398.96 5.0152e-16
28493.2 4.9282e-16
28587.45 4.7697e-16
28681.6 4.4321e-16
28775.85 4.5612e-16
28870.0 4.7481e-16
28964.25 4.7941e-16
29058.5 4.2855e-16
29152.65 4.3088e-16
29246.89 4.3198e-16
29341.14 4.2236e-16
29435.29 4.1672e-16
29529.54 4.1137e-16
29623.69 4.2752e-16
29717.94 4.2057e-16
29812.19 4.2472e-16
29906.34 4.1624e-16
30000.58 3.8686e-16
30094.83 3.9083e-16
30188.98 3.7481e-16
30283.23 4.0623e-16
30377.38 4.0507e-16
30471.63 3.9931e-16
30565.88 3.508e-16
30660.03 3.6907e-16
30754.27 3.3878e-16
30848.52 3.788e-16
30942.67 3.3726e-16
31036.92 3.7447e-16
31131.07 3.3121e-16
31225.32 3.6552e-16
31319.57 3.3591e-16
31413.72 3.8221e-16
31507.96 3.7191e-16
31602.21 4.5404e-16
31696.36 4.2554e-16
31790.61 4.9118e-16
31884.76 5.0676e-16
31979.01 5.2351e-16
32073.26 5.4312e-16
32167.41 6.268e-16
32261.66 6.5648e-16
32355.9 7.9546e-16
32450.05 9.1885e-16
32544.3 1.0471e-15
32638.45 1.042e-15
32732.7 1.1032e-15
32826.94 9.8603e-16
32921.09 9.9856e-16
33015.34 8.6946e-16
33109.59 7.586e-16
33203.74 6.3551e-16
33297.99 5.9711e-16
33392.14 5.6252e-16
33486.39 5.8967e-16
33580.64 5.9606e-16
33674.79 5.8204e-16
33769.03 5.2903e-16
33863.28 5.223e-16
33957.43 4.6245e-16
34051.68 4.7288e-16
34145.83 5.0218e-16
34240.08 5.2724e-16
34334.33 5.2096e-16
34428.48 5.2304e-16
34522.72 5.0682e-16
34616.97 5.0133e-16
34711.12 4.5405e-16
34805.37 4.711e-16
34899.52 4.1802e-16
34993.77 4.1828e-16
35088.02 3.8677e-16
35182.17 4.0538e-16
35276.41 3.8445e-16
35370.66 3.9485e-16
35464.81 3.6754e-16
35559.06 3.7071e-16
35653.21 3.242e-16
35747.46 3.2862e-16
35841.71 3.3631e-16
35935.86 3.4326e-16
36030.1 3.3083e-16
36124.35 3.0822e-16
36218.5 2.6689e-16
36312.75 3.0028e-16
36406.9 2.7953e-16
36501.15 3.0047e-16
36595.4 2.9974e-16
36689.55 3.3293e-16
36783.8 2.8224e-16
36878.04 3.0925e-16
36972.19 2.5467e-16
37066.44 2.9005e-16
37160.59 2.7688e-16
37254.84 3.0799e-16
37349.09 3.2096e-16
37443.24 3.3346e-16
37537.48 3.1466e-16
37631.73 3.1638e-16
37725.88 2.8154e-16
37820.13 3.0722e-16
37914.28 2.6409e-16
38008.53 3.0731e-16
38102.78 2.8167e-16
38196.93 3.0223e-16
38291.18 2.6212e-16
38385.43 2.7389e-16
38479.57 2.4195e-16
38573.82 2.5678e-16
38667.97 2.3619e-16
38762.22 2.6358e-16
38856.47 2.4712e-16
38950.62 2.6746e-16
39044.86 2.2432e-16
39139.11 2.5936e-16
39233.26 2.7118e-16
39327.51 2.8656e-16
39421.66 2.612e-16
39515.91 2.5508e-16
39610.16 2.4681e-16
39704.31 2.61e-16
39798.55 2.3831e-16
39892.8 2.6875e-16
39986.95 2.6286e-16
40081.2 2.9927e-16
40175.35 3.1809e-16
40269.6 3.646e-16
40363.85 3.3809e-16
40458.0 3.391e-16
40552.24 2.9758e-16
40646.49 2.7648e-16
40740.65 1.9857e-16
40834.89 1.7965e-16
40929.04 1.6497e-16
41023.29 1.9998e-16
41117.54 2.1872e-16
41211.69 2.5693e-16
41305.94 2.3496e-16
41400.18 2.4148e-16
41494.33 2.3695e-16
41588.58 2.5061e-16
41682.73 2.3934e-16
41776.98 2.3335e-16
41871.22 2.1198e-16
41965.38 2.269e-16
42059.63 2.089e-16
42153.87 2.397e-16
42248.03 2.1938e-16
42342.27 2.3765e-16
42436.42 2.0631e-16
42530.67 2.3918e-16
42624.92 2.1855e-16
42719.07 2.2589e-16
42813.32 2.0075e-16
42907.56 2.0059e-16
43001.71 1.981e-16
43095.96 2.1391e-16
43190.11 1.8719e-16
43284.36 1.9177e-16
43378.61 2.0232e-16
43472.76 2.2638e-16
43567.01 2.0527e-16
43661.25 1.9141e-16
43755.4 1.5582e-16
43849.65 2.0412e-16
43943.8 1.8752e-16
44038.05 2.3077e-16
44132.3 2.2173e-16
44226.45 2.1693e-16
44320.7 1.6575e-16
44414.94 1.8722e-16
44509.1 1.5511e-16
44603.34 2.0352e-16
44697.49 1.8306e-16
44791.74 2.0387e-16
44885.99 1.575e-16
44980.14 1.8134e-16
45074.39 1.6975e-16
45168.63 2.0481e-16
45262.78 1.897e-16
45357.03 2.0566e-16
45451.18 1.8051e-16
45545.43 2.0626e-16
45639.68 1.6709e-16
45733.82 1.5809e-16
45828.08 1.0725e-16
45922.32 1.5515e-16
46016.48 1.5621e-16
46110.72 2.0696e-16
46204.87 1.8877e-16
46299.12 1.9763e-16
46393.37 1.6106e-16
46487.52 1.8498e-16
46581.77 1.7637e-16
46676.01 1.8216e-16
46770.16 1.6677e-16
46864.42 1.8086e-16
46958.56 1.3029e-16
47052.81 1.2275e-16
47147.06 1.2734e-16
47241.21 1.6278e-16
47335.46 1.5434e-16
47429.7 1.7077e-16
47523.85 1.9845e-16
47618.1 1.8853e-16
47712.25 1.325e-16
47806.5 1.5675e-16
47900.75 1.4274e-16
47994.9 1.8684e-16
48089.14 1.4976e-16
48183.39 1.7002e-16
48278.52 1.4559e-16
48761.3 1.642e-16
49248.91 1.8301e-16
49741.4 2.02e-16
50238.81 2.2118e-16
50741.2 2.4056e-16
51248.61 2.6012e-16
51761.1 2.7989e-16
51950.9 2.8721e-16
52252.58 3.7144e-16
52554.27 3.8177e-16
52855.95 3.4322e-16
53157.63 3.2389e-16
53459.32 3.5875e-16
53761.0 2.4665e-16
54062.68 2.5223e-16
54364.37 2.4103e-16
54666.05 2.5751e-16
54967.74 2.7624e-16
55269.42 2.7981e-16
55571.11 2.9512e-16
55872.8 3.7358e-16
56174.47 4.1615e-16
56476.15 3.7063e-16
56777.85 5.0612e-16
57079.54 5.2121e-16
57381.21 4.8219e-16
57682.9 4.7347e-16
57984.59 4.6902e-16
58286.27 4.3702e-16
58587.95 4.5223e-16
58889.64 4.635e-16
59191.32 4.79e-16
59493.0 4.8119e-16
59794.69 5.885e-16
60096.37 7.0818e-16
60398.05 7.521e-16
60699.74 7.3571e-16
61001.42 8.8616e-16
61303.1 1.1668e-15
61604.79 1.447e-15
61906.48 2.4084e-15
62208.16 2.5093e-15
62509.84 2.263e-15
62811.52 1.9565e-15
63113.21 1.4945e-15
63414.89 1.2462e-15
63716.57 1.0456e-15
64018.27 9.4474e-16
64319.94 8.1427e-16
64621.62 7.5543e-16
64923.32 6.8416e-16
65225.0 6.4542e-16
65526.68 6.5848e-16
65828.37 5.9958e-16
66130.05 7.0965e-16
66431.74 6.7774e-16
66733.42 6.9034e-16
67035.1 6.7078e-16
67336.79 6.5433e-16
67638.47 6.7695e-16
67940.16 6.6466e-16
68241.84 6.5412e-16
68543.52 7.1009e-16
68845.21 7.2936e-16
69146.89 7.6931e-16
69448.57 8.8397e-16
69750.26 1.2217e-15
70051.94 1.2188e-15
70353.64 9.3375e-16
70655.31 8.9437e-16
70956.99 9.3619e-16
71258.69 9.2866e-16
71560.36 9.0006e-16
71862.05 9.3805e-16
72163.74 9.637e-16
72465.42 1.0929e-15
72767.1 1.0927e-15
73068.78 1.1505e-15
73350.72 1.0573e-15
73370.47 1.2718e-15
73672.16 1.3344e-15
73955.28 1.3447e-15
73973.84 1.4679e-15
74559.86 1.6877e-15
75164.42 1.9658e-15
75769.0 2.307e-15
76373.56 2.3116e-15
76978.14 2.1783e-15
77582.71 2.0951e-15
78187.27 2.0079e-15
78791.86 1.8154e-15
79396.42 1.5418e-15
80000.99 1.3193e-15
80605.56 1.1394e-15
81210.13 9.943e-16
81814.71 9.338e-16
82419.27 9.1269e-16
83023.85 9.214e-16
83628.41 9.3867e-16
84232.99 9.4395e-16
84837.55 1.02e-15
85442.13 1.0853e-15
86046.7 1.0822e-15
86651.26 9.8984e-16
87255.83 8.184e-16
87860.4 6.532e-16
88464.97 5.2967e-16
89069.55 4.5439e-16
89674.12 4.6346e-16
90278.69 4.0703e-16
90883.26 3.4192e-16
91487.83 2.8729e-16
92092.4 3.1956e-16
92696.96 3.0895e-16
93301.54 2.934e-16
93906.11 2.8517e-16
94510.67 2.766e-16
95115.26 2.3852e-16
95719.83 2.793e-16
96324.39 2.9054e-16
96928.97 2.8801e-16
97533.5 2.6953e-16
98138.12 2.5575e-16
98742.64 2.4672e-16
99347.28 2.391e-16
99951.81 2.4691e-16
100556.42 2.4692e-16
101160.97 2.1992e-16
101765.5 2.4997e-16
102370.11 2.4195e-16
102974.64 2.4029e-16
103579.28 2.3486e-16
104183.8 2.6764e-16
104788.33 3.0508e-16
105392.96 3.2731e-16
105997.49 3.2908e-16
106602.11 3.1748e-16
107206.64 3.2456e-16
107811.27 3.2466e-16
108415.8 3.3449e-16
109020.33 3.6336e-16
109624.96 4.1892e-16
110229.49 4.8363e-16
110834.11 5.2175e-16
111438.64 7.7711e-16
112043.27 1.1659e-15
112647.79 1.2257e-15
113252.32 1.0206e-15
113856.96 8.1513e-16
114461.48 6.8236e-16
115066.1 5.8941e-16
115670.63 5.3614e-16
116275.27 4.9268e-16
116879.79 4.7519e-16
117484.32 4.6921e-16
118088.96 4.7039e-16
118693.48 4.9079e-16
119298.1 5.1471e-16
119902.63 5.1538e-16
120507.17 5.1306e-16
121111.79 4.9803e-16
121716.32 4.8299e-16
122320.95 5.1621e-16
122925.48 5.3831e-16
123530.1 5.4048e-16
124134.64 5.5066e-16
124739.16 5.7782e-16
125343.79 6.1396e-16
125948.32 6.5122e-16
126552.95 6.9041e-16
127157.47 7.9297e-16
127762.0 1.2066e-15
128366.63 1.2381e-15
128971.16 6.0229e-16
129575.79 4.6232e-16
130180.31 4.3453e-16
130784.94 4.201e-16
131389.47 4.1679e-16
131994.01 4.1194e-16
132598.64 4.1684e-16
133203.16 4.0797e-16
133807.78 4.1243e-16
134412.32 4.1279e-16
135016.94 4.2394e-16
135621.46 4.1599e-16
136226.0 4.1173e-16
136830.63 3.973e-16
137435.16 4.221e-16
138039.77 3.8314e-16
138644.31 3.7062e-16
139248.94 3.7184e-16
139853.47 3.6539e-16
140457.99 3.5081e-16
141062.63 3.4841e-16
141582.84 3.8297e-16
142475.56 4.0387e-16
143368.38 3.9383e-16
144261.11 3.6627e-16
145153.83 3.5348e-16
146046.56 3.4646e-16
146939.38 3.5516e-16
147832.11 3.5779e-16
148724.83 3.5781e-16
149617.65 3.7196e-16
150510.38 3.5071e-16
151403.1 3.5159e-16
152295.83 3.4209e-16
153188.65 3.5469e-16
154081.38 3.5548e-16
154974.1 4.4817e-16
155866.92 3.7165e-16
156759.65 4.0498e-16
157652.37 3.7919e-16
158545.19 3.9725e-16
159437.92 3.9705e-16
160330.64 3.8617e-16
161223.37 3.922e-16
162116.21 4.1303e-16
163008.91 4.2795e-16
163901.64 4.864e-16
164794.37 5.1831e-16
165687.19 4.6979e-16
166579.92 4.6845e-16
167472.65 4.8828e-16
168365.48 4.7909e-16
169258.19 4.9469e-16
170150.92 5.3798e-16
171043.74 5.2035e-16
171936.46 4.8029e-16
172829.19 4.9374e-16
173721.91 5.1341e-16
174614.73 4.9366e-16
175507.46 4.5899e-16
176400.18 4.602e-16
177293.0 4.3776e-16
178185.73 4.5353e-16
179078.45 4.5788e-16
179971.27 4.5479e-16
180864.0 4.375e-16
181756.73 4.3268e-16
182649.45 4.4948e-16
183542.27 4.4893e-16
184435.0 4.5293e-16
185327.72 4.4863e-16
186220.55 5.2397e-16
187113.28 7.0115e-16
188005.99 5.7493e-16
188898.72 4.5785e-16
189791.55 4.3784e-16
190684.27 4.4268e-16
191577.0 4.5436e-16
192469.82 4.5285e-16
193362.54 4.4168e-16
194255.27 4.575e-16
195148.0 4.6992e-16
196040.82 4.6815e-16
196933.54 4.6731e-16
197826.27 4.5984e-16
198719.09 4.6557e-16
200132.81 4.2559e-16
201841.52 5.0652e-16
203551.22 4.8029e-16
205261.91 4.5745e-16
206973.46 5.1156e-16
208685.88 5.2411e-16
210399.28 4.757e-16
212113.57 5.082e-16
213828.81 5.4432e-16
215545.04 5.0304e-16
217262.14 4.7847e-16
218980.22 5.2121e-16
220699.17 5.3857e-16
222419.08 5.1858e-16
224139.98 4.9838e-16
225861.76 5.1743e-16
227584.51 5.4442e-16
229308.24 5.4408e-16
231032.83 5.1828e-16
232758.51 5.2267e-16
234484.96 5.4038e-16
236212.46 5.5077e-16
237940.96 5.3738e-16
239670.34 5.2559e-16
241400.67 5.3606e-16
243131.99 5.4381e-16
244864.17 5.4381e-16
246597.44 5.3513e-16
248331.59 5.277e-16
250066.8 5.3639e-16
251802.87 5.4656e-16
253539.95 5.377e-16
255277.98 5.484e-16
257016.98 5.4149e-16
258756.96 5.6009e-16
260497.93 5.6924e-16
262239.86 5.4524e-16
263982.75 5.6134e-16
265726.62 5.5562e-16
267471.47 5.513e-16
269217.41 5.5165e-16
270964.2 5.5423e-16
272711.96 5.6779e-16
274460.79 5.7842e-16
276210.62 5.633e-16
277961.31 5.6296e-16
279713.06 5.5832e-16
281465.81 5.6722e-16
283219.63 5.6891e-16
284974.39 5.733e-16
286730.07 5.5509e-16
288486.87 5.9113e-16
290244.58 5.755e-16
292003.33 5.6513e-16
293763.08 5.4695e-16
295523.81 5.8131e-16
297285.6 5.6939e-16
299048.36 5.7205e-16
300812.1 5.6484e-16
302576.9 5.7956e-16
304342.8 5.6974e-16
306109.64 5.5963e-16
307877.49 5.8596e-16
309646.28 6.0262e-16
311416.25 5.8394e-16
313187.11 5.8105e-16
314959.1 5.9507e-16
316731.99 5.7443e-16
318506.04 5.9519e-16
320281.1 5.8552e-16
322057.07 5.8922e-16
323834.16 5.9188e-16
325612.32 5.8964e-16
327391.52 6.2508e-16
329171.75 5.8874e-16
330952.98 6.3336e-16
332735.22 6.3264e-16
334518.55 7.4799e-16
336303.04 6.4533e-16
338088.38 6.3899e-16
339874.91 6.3958e-16
