# col1 col2
# An Atlas of Galaxy Spectral Energy Distributions from the Ultraviolet to the Mid-Infrared
# Brown et al. (2014)
# http://dx.doi.org/10.5072/03/529D3551F0117
# 
# Column 1 : Restframe Wavelength (Angstrom)
# Column 2 : Flux per unit wavelength (ergs/s/cm^2/Angstrom)
# Column 3 : Observed wavelength (Angstrom)
# Column 4 : Source (0 = model, 1 = Optical Spectrum, 2 = Akari, 3 = Spitzer IRS)
# 
102.01 1.0683e-21
103.91 1.4018e-21
106.08 1.8651e-21
108.06 2.5334e-21
110.06 3.8256e-21
113.93 6.1759e-21
117.94 9.326e-21
120.96 3.7299e-20
124.92 5.1725e-20
126.95 5.8843e-20
128.13 6.3929e-20
131.11 7.6155e-20
132.02 9.2193e-20
133.86 1.0249e-19
136.98 1.389e-19
139.85 1.617e-19
143.1 4.8944e-19
147.11 1.3858e-18
150.89 1.5948e-18
155.11 1.8522e-18
159.09 2.1562e-18
162.05 2.3916e-18
165.82 2.7778e-18
170.08 3.1456e-18
172.84 3.465e-18
176.87 3.8967e-18
180.16 4.2335e-18
181.82 4.4843e-18
186.06 4.9969e-18
190.83 5.6715e-18
193.93 6.1617e-18
197.99 6.7561e-18
202.14 7.4421e-18
204.95 7.9744e-18
210.21 8.4859e-18
216.1 1.0039e-17
220.11 1.0932e-17
223.18 1.1447e-17
226.8 1.2465e-17
229.96 1.9665e-17
234.23 3.4096e-17
240.24 4.3822e-17
245.84 4.3321e-17
252.14 4.794e-17
256.83 4.2043e-17
259.81 4.9057e-17
264.03 5.2686e-17
268.94 5.4287e-17
273.94 5.5552e-17
279.03 5.6977e-17
284.22 5.8438e-17
290.17 5.7372e-17
296.24 5.9937e-17
301.06 6.0631e-17
308.07 6.3052e-17
318.16 6.6481e-17
327.83 6.8659e-17
337.79 7.0097e-17
348.06 7.1236e-17
356.98 7.256e-17
366.14 7.4079e-17
374.67 7.4765e-17
385.17 7.3231e-17
395.05 7.6155e-17
405.18 7.7392e-17
413.67 7.7392e-17
422.33 7.6859e-17
430.18 7.6683e-17
441.21 7.7392e-17
451.49 7.6683e-17
459.88 7.6155e-17
469.51 7.5805e-17
480.45 7.598e-17
490.51 7.4421e-17
499.63 7.4937e-17
506.58 7.3739e-17
512.45 7.6506e-17
519.58 7.6155e-17
530.46 7.4937e-17
540.32 7.256e-17
550.36 7.2227e-17
560.59 7.34e-17
569.7 7.4421e-17
580.3 7.2895e-17
589.72 7.3569e-17
600.69 7.14e-17
610.45 6.4818e-17
620.37 7.3063e-17
630.45 7.206e-17
640.69 7.2227e-17
649.6 7.2227e-17
658.64 7.1564e-17
664.74 7.2727e-17
675.54 7.2227e-17
684.93 6.9614e-17
694.46 7.4079e-17
705.75 7.0745e-17
715.57 7.4765e-17
725.52 7.4765e-17
735.61 7.4937e-17
745.85 7.6683e-17
754.48 7.7571e-17
764.98 7.4079e-17
775.62 8.0112e-17
784.6 8.0482e-17
795.52 8.2167e-17
804.73 8.3502e-17
815.92 8.4081e-17
825.37 8.7437e-17
834.93 7.633e-17
844.6 8.8043e-17
854.38 8.845e-17
864.27 9.1769e-17
874.28 9.5213e-17
884.4 9.993e-17
894.64 1.0273e-16
905.0 1.0109e-16
915.48 1.4781e-16
923.95 8.6835e-16
934.65 1.8823e-15
945.47 3.6618e-15
954.22 5.4038e-15
965.27 5.6846e-15
974.2 8.3887e-16
985.48 4.1947e-15
994.6 4.8944e-15
1006.12 7.9744e-15
1015.43 7.9378e-15
1024.82 3.465e-15
1034.31 5.0781e-15
1043.88 1.0907e-14
1055.96 1.0732e-14
1065.73 7.8831e-15
1075.6 9.8333e-15
1085.55 7.2393e-15
1095.59 1.0537e-14
1105.73 1.0155e-14
1115.96 9.4994e-15
1126.29 8.3887e-15
1134.09 1.1526e-14
1144.59 1.0273e-14
1155.18 1.1238e-14
1165.87 1.158e-14
1173.95 7.4937e-15
1184.81 1.1238e-14
1195.77 6.8817e-15
1204.06 4.5363e-15
1215.2 3.5375e-15
1223.63 7.5457e-15
1234.95 1.2322e-14
1246.38 1.3699e-14
1255.02 1.2785e-14
1263.72 1.0561e-14
1275.41 1.4679e-14
1284.25 1.5585e-14
1296.13 1.1368e-14
1305.12 1.1135e-14
1314.16 1.5021e-14
1326.32 1.4246e-14
1335.52 1.2014e-14
1344.77 1.5371e-14
1354.1 1.4815e-14
1363.48 1.2814e-14
1376.1 1.3731e-14
1385.64 1.389e-14
1395.24 1.2014e-14
1404.91 1.2494e-14
1414.65 1.2609e-14
1424.46 1.3234e-14
1434.33 1.3023e-14
1440.95 1.3954e-14
1447.6 1.4312e-14
1454.28 1.3762e-14
1464.36 1.2436e-14
1474.51 1.2465e-14
1484.74 1.2874e-14
1495.03 1.3204e-14
1505.39 1.2322e-14
1512.34 1.0634e-14
1515.83 1.166e-14
1526.33 1.111e-14
1533.38 9.3907e-15
1544.01 1.0807e-14
1554.71 1.0109e-14
1565.49 1.0202e-14
1576.34 1.0957e-14
1583.61 1.1714e-14
1594.59 1.1959e-14
1605.64 1.1768e-14
1616.77 1.1877e-14
1624.24 1.1033e-14
1635.5 1.1932e-14
1646.83 1.2153e-14
1654.43 1.1008e-14
1665.9 1.2266e-14
1673.59 1.0537e-14
1677.45 1.2294e-14
1685.19 1.3083e-14
1696.87 1.2153e-14
1704.7 1.1553e-14
1716.52 1.0782e-14
1724.44 1.0757e-14
1736.4 1.1633e-14
1744.41 1.1342e-14
1756.5 1.2322e-14
1764.61 1.1033e-14
1776.84 1.1395e-14
1785.04 1.1633e-14
1793.28 1.2697e-14
1805.72 1.258e-14
1814.05 1.1395e-14
1826.62 1.1714e-14
1835.06 1.1135e-14
1843.53 1.0062e-14
1856.3 1.0085e-14
1864.87 1.0488e-14
1873.48 1.1606e-14
1886.47 1.0561e-14
1895.17 1.0132e-14
1903.92 1.0782e-14
1917.12 1.032e-14
1925.97 1.0155e-14
1934.86 1.0416e-14
1943.79 1.0982e-14
1952.76 1.0249e-14
1966.3 1.1447e-14
1975.37 1.1768e-14
1984.49 1.1084e-14
1993.65 1.0708e-14
2002.85 1.1059e-14
2016.74 1.0561e-14
2026.05 1.1135e-14
2035.4 1.0537e-14
2044.79 1.1084e-14
2054.23 1.0537e-14
2063.71 1.0512e-14
2073.24 1.1395e-14
2078.02 1.1059e-14
2082.81 1.166e-14
2097.25 1.0932e-14
2106.93 1.0907e-14
2116.65 1.1084e-14
2126.42 1.1187e-14
2136.24 1.0226e-14
2146.1 1.0732e-14
2156.0 1.1187e-14
2165.95 1.0708e-14
2175.95 1.061e-14
2186.0 1.0561e-14
2196.09 1.1084e-14
2206.22 1.0708e-14
2216.41 9.9471e-15
2226.64 9.6538e-15
2236.91 1.0633e-14
2247.24 1.0081e-14
2252.42 9.3849e-15
2262.82 9.6219e-15
2273.26 1.0002e-14
2283.75 1.0494e-14
2294.29 9.767e-15
2304.88 9.8762e-15
2315.52 9.2134e-15
2326.21 6.8588e-15
2336.95 8.205e-15
2342.34 7.7623e-15
2353.15 8.8271e-15
2364.01 7.7205e-15
2374.92 8.1184e-15
2385.88 7.266e-15
2396.9 7.9272e-15
2402.42 7.5515e-15
2413.51 7.8678e-15
2424.65 8.7433e-15
2435.84 8.4236e-15
2447.09 9.0848e-15
2452.73 9.0204e-15
2464.05 8.7911e-15
2475.42 8.3533e-15
2486.85 8.3115e-15
2492.58 7.954e-15
2504.09 9.2342e-15
2515.64 7.5895e-15
2527.26 7.3795e-15
2533.08 7.7434e-15
2544.77 7.6515e-15
2556.52 8.8218e-15
2562.41 8.2122e-15
2574.24 8.9799e-15
2586.12 8.6912e-15
2592.09 8.433e-15
2604.05 7.9945e-15
2616.07 7.791e-15
2622.1 8.5015e-15
2634.2 9.5346e-15
2646.36 1.0993e-14
2652.46 1.2134e-14
2664.71 9.8132e-15
2677.01 1.0607e-14
2683.18 1.0852e-14
2695.56 9.8245e-15
2708.0 1.0595e-14
2714.25 9.3974e-15
2726.77 9.0532e-15
2733.06 9.856e-15
2745.68 7.6824e-15
2752.0 8.211e-15
2764.71 8.9369e-15
2777.47 9.4838e-15
2783.87 8.2201e-15
2796.72 6.0349e-15
2803.17 6.6003e-15
2816.11 9.1697e-15
2822.6 1.055e-14
2835.63 1.021e-14
2842.16 9.4826e-15
2855.28 8.3122e-15
2861.87 1.0805e-14
2875.07 1.1545e-14
2881.7 1.1048e-14
2895.0 1.1457e-14
2908.37 1.3516e-14
2928.53 1.2518e-14
2948.83 1.2139e-14
2969.27 1.2701e-14
2989.85 1.278e-14
3010.57 1.3097e-14
3031.44 1.3238e-14
3052.45 1.3381e-14
3066.54 1.3749e-14
3087.8 1.3929e-14
3109.2 1.4407e-14
3130.76 1.4002e-14
3152.46 1.3991e-14
3167.01 1.4408e-14
3188.96 1.3099e-14
3211.07 1.4121e-14
3233.32 1.2633e-14
3248.25 1.4937e-14
3270.76 1.6289e-14
3293.44 1.5978e-14
3308.64 1.5786e-14
3323.91 1.5704e-14
3331.57 1.6139e-14
3339.25 1.4614e-14
3346.95 1.7204e-14
3354.67 1.5722e-14
3362.4 1.4073e-14
3370.15 1.4698e-14
3377.92 1.6074e-14
3385.71 1.531e-14
3393.51 1.6552e-14
3401.33 1.8102e-14
3409.17 1.5761e-14
3417.03 1.5152e-14
3424.91 1.7351e-14
3432.81 1.8122e-14
3440.72 1.6791e-14
3448.65 1.4687e-14
3456.6 1.5769e-14
3464.57 1.441e-14
3472.56 1.6848e-14
3480.56 1.4703e-14
3488.58 1.5932e-14
3496.63 1.5422e-14
3504.69 1.7179e-14
3512.77 1.6326e-14
3520.86 1.7528e-14
3528.98 1.4243e-14
3537.12 1.7197e-14
3545.27 1.7714e-14
3553.44 1.8205e-14
3561.63 1.738e-14
3569.84 1.4822e-14
3575.24 1.0771e-14
3577.92 1.7218e-14
3580.59 9.9882e-15
3583.26 1.3237e-14
3585.94 1.533e-14
3588.61 1.4053e-14
3591.28 1.9216e-14
3593.96 1.3677e-14
3596.63 1.1149e-14
3599.3 1.8459e-14
3601.97 1.8388e-14
3604.65 1.7888e-14
3607.32 1.5937e-14
3609.99 1.2886e-14
3612.67 1.1145e-14
3615.34 1.529e-14
3618.01 1.5119e-14
3620.68 1.6932e-14
3623.36 1.457e-14
3626.03 1.6632e-14
3628.7 1.9813e-14
3631.38 1.9904e-14
3634.05 1.5349e-14
3636.72 1.8682e-14
3639.39 1.6811e-14
3642.07 1.57e-14
3644.74 1.9755e-14
3647.41 1.6336e-14
3650.09 1.8647e-14
3652.76 2.0751e-14
3655.43 1.9541e-14
3658.1 1.6005e-14
3660.78 1.6717e-14
3663.45 1.8286e-14
3666.12 2.0957e-14
3668.8 2.2529e-14
3671.47 1.9522e-14
3674.14 1.7891e-14
3676.81 2.1397e-14
3679.49 1.9417e-14
3682.16 1.5252e-14
3684.83 1.5348e-14
3687.51 1.3344e-14
3690.18 1.5145e-14
3692.85 1.6393e-14
3695.53 1.6534e-14
3698.2 1.9098e-14
3700.87 2.1477e-14
3703.54 2.0781e-14
3706.22 1.8796e-14
3708.89 1.7295e-14
3711.56 1.8412e-14
3714.24 1.8803e-14
3716.91 1.7069e-14
3719.58 2.0175e-14
3722.25 2.0816e-14
3724.93 2.6094e-14
3727.6 3.1625e-14
3730.27 3.3471e-14
3732.95 3.2668e-14
3735.62 2.6701e-14
3738.29 2.5334e-14
3740.96 2.0738e-14
3743.64 1.9727e-14
3746.31 1.6944e-14
3748.98 1.5699e-14
3751.66 1.7971e-14
3754.33 1.8907e-14
3757.0 2.1121e-14
3759.67 2.405e-14
3762.35 1.9231e-14
3765.02 1.8886e-14
3767.69 2.1701e-14
3770.37 1.9157e-14
3773.04 2.0694e-14
3775.71 2.0297e-14
3778.38 1.9238e-14
3781.06 1.9046e-14
3783.73 2.5065e-14
3786.4 2.6836e-14
3789.08 2.4043e-14
3791.75 2.0992e-14
3794.42 1.9885e-14
3797.1 1.7465e-14
3799.77 2.223e-14
3802.44 2.0748e-14
3805.11 1.8803e-14
3807.79 2.235e-14
3810.46 2.1609e-14
3813.13 1.9374e-14
3815.81 2.0445e-14
3818.48 2.0563e-14
3821.15 1.9904e-14
3823.82 1.9945e-14
3826.5 1.794e-14
3829.17 1.6748e-14
3831.84 1.602e-14
3834.52 1.4105e-14
3837.19 1.4033e-14
3839.86 1.7517e-14
3842.53 1.8666e-14
3845.21 1.6529e-14
3847.88 1.5996e-14
3850.55 1.8059e-14
3853.23 2.03e-14
3855.9 2.1659e-14
3858.57 2.1817e-14
3861.24 2.0213e-14
3863.92 2.1831e-14
3866.59 2.4122e-14
3869.26 2.2923e-14
3871.94 1.9551e-14
3874.61 2.1127e-14
3877.28 2.1085e-14
3879.95 1.9622e-14
3882.63 2.2133e-14
3885.3 2.0707e-14
3887.97 1.7897e-14
3890.65 2.1945e-14
3893.32 2.3071e-14
3895.99 2.3422e-14
3898.67 2.4871e-14
3901.34 2.5143e-14
3904.01 2.4913e-14
3906.68 2.5154e-14
3909.36 2.4798e-14
3912.03 2.871e-14
3914.7 2.6096e-14
3917.38 2.5571e-14
3920.05 2.6548e-14
3922.72 2.3355e-14
3925.39 2.3394e-14
3928.07 2.2217e-14
3930.74 1.8613e-14
3933.41 1.8527e-14
3936.09 1.7259e-14
3938.76 1.5594e-14
3941.43 1.8453e-14
3944.1 2.2417e-14
3946.78 2.5028e-14
3949.45 2.5171e-14
3952.12 2.6977e-14
3954.8 2.6197e-14
3957.47 2.6101e-14
3960.14 2.6951e-14
3962.81 2.2059e-14
3965.49 1.7013e-14
3968.16 1.7086e-14
3970.83 1.6021e-14
3973.51 1.7251e-14
3976.18 1.9618e-14
3978.85 1.98e-14
3981.52 2.402e-14
3984.2 2.5143e-14
3986.87 2.3232e-14
3989.54 2.5587e-14
3992.22 2.5945e-14
3994.89 2.8281e-14
3997.56 2.9286e-14
4000.24 3.028e-14
4002.91 2.9626e-14
4005.58 2.9798e-14
4008.25 3.1844e-14
4010.93 3.1447e-14
4013.6 3.2078e-14
4016.27 3.0946e-14
4018.95 2.9341e-14
4021.62 3.1172e-14
4024.29 3.1822e-14
4026.96 3.169e-14
4029.64 2.9635e-14
4032.31 3.1822e-14
4034.98 3.1331e-14
4037.66 2.9635e-14
4040.33 3.0883e-14
4043.0 3.1188e-14
4045.67 2.9207e-14
4048.35 2.9259e-14
4051.02 3.0868e-14
4053.69 3.0001e-14
4056.37 2.9661e-14
4059.04 2.9497e-14
4061.71 3.06e-14
4064.38 2.9558e-14
4067.06 3.1244e-14
4069.73 3.0346e-14
4072.4 3.1601e-14
4075.08 3.0647e-14
4077.75 3.2493e-14
4080.42 3.1576e-14
4083.09 3.3155e-14
4085.77 3.3906e-14
4088.44 3.2874e-14
4091.11 3.092e-14
4093.79 3.1565e-14
4096.46 3.0871e-14
4099.13 3.1445e-14
4101.81 2.8884e-14
4104.48 2.8634e-14
4107.15 3.0315e-14
4109.82 3.0511e-14
4112.5 3.0729e-14
4115.17 3.2763e-14
4117.84 3.1972e-14
4120.52 3.2475e-14
4123.19 3.1613e-14
4125.86 2.9069e-14
4128.53 3.1246e-14
4131.21 3.5076e-14
4133.88 3.0185e-14
4136.55 3.0129e-14
4139.23 3.1897e-14
4141.9 3.1368e-14
4144.57 3.0402e-14
4147.24 2.937e-14
4149.92 3.1701e-14
4152.59 3.0931e-14
4155.26 2.8543e-14
4157.94 2.9477e-14
4160.61 3.1322e-14
4163.28 3.203e-14
4165.95 3.2127e-14
4168.63 2.9863e-14
4171.3 3.2369e-14
4173.97 2.8906e-14
4176.65 2.8046e-14
4179.32 2.8988e-14
4181.99 3.0927e-14
4184.66 3.0199e-14
4187.34 3.1086e-14
4190.01 3.26e-14
4192.68 3.2514e-14
4195.36 3.2022e-14
4198.03 3.0384e-14
4200.7 3.1725e-14
4203.38 3.1325e-14
4206.05 3.3191e-14
4208.72 3.2149e-14
4211.39 3.4202e-14
4214.07 3.3362e-14
4216.74 3.3412e-14
4219.41 3.2087e-14
4222.09 3.0387e-14
4224.76 3.1005e-14
4227.43 3.2425e-14
4230.1 2.8688e-14
4232.78 3.0051e-14
4235.45 3.0245e-14
4238.12 3.1138e-14
4240.8 3.1804e-14
4243.47 3.3488e-14
4246.14 3.167e-14
4248.81 3.3987e-14
4251.49 3.1956e-14
4254.16 3.1906e-14
4256.83 3.1996e-14
4259.51 2.9904e-14
4262.18 3.121e-14
4264.85 3.2769e-14
4267.52 3.282e-14
4270.2 3.3476e-14
4272.87 3.2287e-14
4275.54 3.1824e-14
4278.22 3.4088e-14
4280.89 3.0856e-14
4283.56 3.085e-14
4286.23 3.0554e-14
4288.91 3.0733e-14
4291.58 3.0576e-14
4294.25 3.0648e-14
4296.93 3.21e-14
4299.6 3.0176e-14
4302.27 2.8886e-14
4304.95 2.6265e-14
4307.62 2.6842e-14
4310.29 2.8128e-14
4312.96 2.848e-14
4315.64 3.1169e-14
4318.31 3.2923e-14
4320.98 3.4581e-14
4323.66 3.5284e-14
4326.33 3.2615e-14
4329.0 3.241e-14
4331.67 3.4585e-14
4334.35 3.2649e-14
4337.02 3.1976e-14
4339.69 3.392e-14
4342.37 3.4407e-14
4345.04 3.5665e-14
4347.71 3.4739e-14
4350.38 3.582e-14
4353.06 3.4766e-14
4355.73 3.4908e-14
4358.4 3.3824e-14
4361.08 3.6687e-14
4363.75 3.5806e-14
4366.42 3.5154e-14
4369.09 3.625e-14
4371.77 3.7482e-14
4374.44 3.6689e-14
4377.11 3.3991e-14
4379.79 3.2076e-14
4382.46 3.2159e-14
4385.13 3.1886e-14
4387.8 3.2479e-14
4390.48 3.3053e-14
4393.15 3.3859e-14
4395.82 3.4889e-14
4398.5 3.4447e-14
4401.17 3.3033e-14
4403.84 3.4597e-14
4406.52 3.4208e-14
4409.19 3.5593e-14
4411.86 3.3031e-14
4414.53 3.6002e-14
4417.21 3.7324e-14
4419.88 3.7088e-14
4422.55 3.8531e-14
4425.23 3.6494e-14
4427.9 3.6015e-14
4430.57 3.587e-14
4433.24 3.659e-14
4435.92 3.6172e-14
4438.59 3.8157e-14
4441.26 3.8033e-14
4443.94 3.7955e-14
4446.61 3.873e-14
4449.28 3.9182e-14
4451.95 3.6953e-14
4454.63 3.6662e-14
4457.3 3.7747e-14
4459.97 3.5795e-14
4462.65 3.5229e-14
4465.32 3.6785e-14
4467.99 3.6002e-14
4470.66 3.7194e-14
4473.34 3.9247e-14
4476.01 3.8287e-14
4478.68 3.8275e-14
4481.36 3.9768e-14
4484.03 3.9719e-14
4486.7 3.887e-14
4489.37 3.8648e-14
4492.05 3.9995e-14
4494.72 4.0462e-14
4497.39 4.004e-14
4500.07 3.9857e-14
4502.74 4.1694e-14
4505.41 4.3209e-14
4508.09 4.2801e-14
4510.76 4.3093e-14
4513.43 4.1339e-14
4516.1 4.0749e-14
4518.78 4.0338e-14
4521.45 3.9696e-14
4524.12 3.8482e-14
4526.8 3.7715e-14
4529.47 3.8153e-14
4532.14 3.7884e-14
4534.81 3.8218e-14
4537.49 3.9098e-14
4540.16 3.9461e-14
4542.83 3.9238e-14
4545.51 3.8854e-14
4548.18 3.9676e-14
4550.85 4.0019e-14
4553.52 3.851e-14
4556.2 4.0368e-14
4558.87 3.9666e-14
4561.54 4.0634e-14
4564.22 4.2261e-14
4566.89 4.0253e-14
4569.56 4.1032e-14
4572.23 3.9773e-14
4574.91 4.0416e-14
4577.58 4.0838e-14
4580.25 4.1188e-14
4582.93 4.1326e-14
4585.6 4.1712e-14
4588.27 4.1847e-14
4590.94 4.1415e-14
4593.62 4.0217e-14
4596.29 4.2215e-14
4598.96 4.2742e-14
4601.64 4.3949e-14
4604.31 4.3468e-14
4606.98 4.2924e-14
4609.66 4.3691e-14
4612.33 4.4347e-14
4615.0 4.5112e-14
4617.67 4.404e-14
4620.35 4.4056e-14
4623.02 4.3541e-14
4625.69 4.3452e-14
4628.37 4.4006e-14
4631.04 4.285e-14
4633.71 4.3046e-14
4636.38 4.2832e-14
4639.06 4.2996e-14
4641.73 4.2396e-14
4644.4 4.205e-14
4647.08 4.1863e-14
4649.75 4.2119e-14
4652.42 4.3492e-14
4655.09 4.2324e-14
4657.77 4.3599e-14
4660.44 4.358e-14
4663.11 4.2226e-14
4665.79 4.1366e-14
4668.46 4.0303e-14
4671.13 4.0423e-14
4673.8 4.0302e-14
4676.48 4.1242e-14
4679.15 4.0598e-14
4681.82 3.8919e-14
4684.5 3.938e-14
4687.17 4.0973e-14
4689.84 3.9486e-14
4692.51 4.2716e-14
4695.19 4.1284e-14
4697.86 4.0529e-14
4700.53 4.0013e-14
4703.21 3.8519e-14
4705.88 3.9347e-14
4708.55 4.0015e-14
4711.23 3.8297e-14
4713.9 3.9656e-14
4716.57 4.1044e-14
4719.24 4.1164e-14
4721.92 4.2584e-14
4724.59 4.1733e-14
4727.26 4.1589e-14
4729.94 4.0878e-14
4732.61 4.0296e-14
4735.28 4.1027e-14
4737.95 4.2582e-14
4740.63 4.0065e-14
4743.3 3.9569e-14
4745.97 4.1761e-14
4748.65 4.3438e-14
4751.32 4.2153e-14
4753.99 4.0784e-14
4756.66 4.053e-14
4759.34 4.2296e-14
4762.01 4.1413e-14
4764.68 4.0694e-14
4767.36 4.0017e-14
4770.03 3.8486e-14
4772.7 4.0458e-14
4775.37 4.0607e-14
4778.05 4.1271e-14
4780.72 4.113e-14
4783.39 4.1699e-14
4786.07 4.1748e-14
4788.74 4.2827e-14
4791.41 4.1489e-14
4794.08 4.3162e-14
4796.76 4.4514e-14
4799.43 4.2742e-14
4802.1 4.2804e-14
4804.78 4.2286e-14
4807.45 4.2563e-14
4810.12 4.243e-14
4812.8 4.2698e-14
4815.47 4.1245e-14
4818.14 4.2478e-14
4820.81 4.2458e-14
4823.49 4.2887e-14
4826.16 4.1956e-14
4828.83 4.1713e-14
4831.51 4.314e-14
4834.18 4.2162e-14
4836.85 4.178e-14
4839.52 4.0551e-14
4842.2 4.0212e-14
4844.87 4.0861e-14
4847.54 4.0285e-14
4850.22 3.8547e-14
4852.89 3.9996e-14
4855.56 4.0784e-14
4858.23 4.0976e-14
4860.91 4.3734e-14
4863.58 4.4279e-14
4866.25 4.2347e-14
4868.93 4.3634e-14
4871.6 4.4668e-14
4874.27 4.1433e-14
4876.94 4.0358e-14
4879.62 4.0051e-14
4882.29 3.985e-14
4884.96 4.0851e-14
4887.64 3.9984e-14
4890.31 3.9222e-14
4892.98 3.9301e-14
4895.65 4.0853e-14
4898.33 4.2122e-14
4901.0 4.1263e-14
4903.67 4.1113e-14
4906.35 4.101e-14
4909.02 4.1188e-14
4911.69 4.0845e-14
4914.37 4.2204e-14
4917.04 4.2746e-14
4919.71 4.1199e-14
4922.38 4.0103e-14
4925.06 4.1954e-14
4927.73 4.0441e-14
4930.4 4.2121e-14
4933.08 4.055e-14
4935.75 4.0839e-14
4938.42 4.1313e-14
4941.09 4.099e-14
4943.77 4.2899e-14
4946.44 4.2864e-14
4949.11 4.509e-14
4951.79 4.4416e-14
4954.46 4.4874e-14
4957.13 4.4192e-14
4959.8 4.3261e-14
4962.48 4.1619e-14
4965.15 4.381e-14
4967.82 4.297e-14
4970.5 4.3219e-14
4973.17 4.2611e-14
4975.84 4.2372e-14
4978.51 4.0591e-14
4981.19 3.9682e-14
4983.86 4.1052e-14
4986.53 4.079e-14
4989.21 4.0989e-14
4991.88 4.1324e-14
4994.55 4.0056e-14
4997.22 3.9351e-14
4999.9 4.1109e-14
5002.57 4.4124e-14
5005.24 4.5507e-14
5007.92 5.0134e-14
5010.59 4.7443e-14
5013.26 4.685e-14
5015.94 4.548e-14
5018.61 4.4226e-14
5021.28 4.4367e-14
5023.95 4.1795e-14
5026.63 3.9943e-14
5029.3 4.024e-14
5031.97 4.0127e-14
5034.65 4.0031e-14
5037.32 3.9683e-14
5039.99 3.9731e-14
5042.66 4.0317e-14
5045.34 3.9122e-14
5048.01 4.1308e-14
5050.68 4.0737e-14
5053.36 4.0713e-14
5056.03 4.2403e-14
5058.7 4.2018e-14
5061.37 4.1275e-14
5064.05 4.2235e-14
5066.72 4.2163e-14
5069.39 4.0029e-14
5072.07 4.0728e-14
5074.74 4.0671e-14
5077.41 3.9968e-14
5080.08 4.1402e-14
5082.76 4.1372e-14
5085.43 4.0569e-14
5088.1 4.0315e-14
5090.78 4.1353e-14
5093.45 3.9726e-14
5096.12 3.9054e-14
5098.79 4.0351e-14
5101.47 4.0721e-14
5104.14 4.021e-14
5106.81 3.9273e-14
5109.49 3.9867e-14
5112.16 4.0114e-14
5114.83 3.9432e-14
5117.51 3.87e-14
5120.18 4.1445e-14
5122.85 4.123e-14
5125.52 3.9799e-14
5128.2 4.076e-14
5130.87 3.9988e-14
5133.54 3.8612e-14
5136.22 3.8876e-14
5138.89 3.8961e-14
5141.56 3.9427e-14
5144.23 3.9279e-14
5146.91 3.876e-14
5149.58 3.8744e-14
5152.25 3.9558e-14
5154.93 3.9943e-14
5157.6 4.0219e-14
5160.27 3.7823e-14
5162.94 3.7353e-14
5165.62 3.5052e-14
5168.29 3.5304e-14
5170.96 3.3998e-14
5173.64 3.3056e-14
5176.31 3.464e-14
5178.98 3.2435e-14
5181.65 3.4334e-14
5184.33 3.562e-14
5187.0 3.5044e-14
5189.67 3.7535e-14
5192.35 3.9023e-14
5195.02 3.89e-14
5197.69 4.0913e-14
5200.36 3.8897e-14
5203.04 3.9274e-14
5205.71 3.9632e-14
5208.38 3.887e-14
5211.06 4.009e-14
5213.73 3.9672e-14
5216.4 4.1035e-14
5219.08 4.0021e-14
5221.75 3.9247e-14
5224.42 4.0773e-14
5227.09 4.1493e-14
5229.77 3.9919e-14
5232.44 4.1478e-14
5235.11 4.1416e-14
5237.79 4.2427e-14
5240.46 4.246e-14
5243.13 4.1789e-14
5245.8 4.3693e-14
5248.48 4.1575e-14
5251.15 4.2363e-14
5253.82 4.1811e-14
5256.5 4.1551e-14
5259.17 4.2692e-14
5261.84 4.1084e-14
5264.51 3.9928e-14
5267.19 3.7088e-14
5269.86 3.8249e-14
5272.53 3.9504e-14
5275.21 4.0866e-14
5277.88 3.9974e-14
5280.55 4.1327e-14
5283.22 4.213e-14
5285.9 4.2538e-14
5288.57 4.3635e-14
5291.24 4.2304e-14
5293.92 4.2185e-14
5296.59 4.3868e-14
5299.26 4.1593e-14
5301.93 4.219e-14
5304.61 4.5391e-14
5307.28 4.4358e-14
5309.95 4.6172e-14
5312.63 4.3161e-14
5315.3 4.3057e-14
5317.97 4.4518e-14
5320.65 4.2646e-14
5323.32 4.1904e-14
5325.99 4.1429e-14
5328.66 4.1365e-14
5331.34 4.0719e-14
5334.01 3.9775e-14
5336.68 4.0713e-14
5339.36 4.0919e-14
5342.03 4.2669e-14
5344.7 4.436e-14
5347.37 4.2606e-14
5350.05 4.2265e-14
5352.72 4.3281e-14
5355.39 4.443e-14
5358.07 4.5166e-14
5360.74 4.4118e-14
5363.41 4.3814e-14
5366.08 4.4701e-14
5368.76 4.5472e-14
5371.43 4.3111e-14
5374.1 4.2671e-14
5376.78 4.1981e-14
5379.45 4.4524e-14
5382.12 4.3176e-14
5384.79 4.2296e-14
5387.47 4.4255e-14
5390.14 4.4107e-14
5392.81 4.13e-14
5395.49 4.0699e-14
5398.16 3.9078e-14
5400.83 3.8518e-14
5403.5 3.9465e-14
5406.18 4.2884e-14
5408.85 4.0642e-14
5411.52 3.9657e-14
5414.2 4.1765e-14
5416.87 4.2205e-14
5419.54 4.2986e-14
5422.22 4.3771e-14
5424.89 4.3896e-14
5427.56 4.2785e-14
5430.23 4.3791e-14
5432.91 4.244e-14
5435.58 4.1504e-14
5438.25 4.0963e-14
5440.93 4.3248e-14
5443.6 4.4273e-14
5446.27 4.2125e-14
5448.94 4.2612e-14
5451.62 4.2429e-14
5454.29 4.3056e-14
5456.96 4.1983e-14
5459.64 4.1505e-14
5462.31 4.0419e-14
5464.98 4.1983e-14
5467.65 4.1981e-14
5470.33 4.0973e-14
5473.0 4.2385e-14
5475.67 4.3249e-14
5478.35 4.2821e-14
5481.02 4.2783e-14
5483.69 4.2919e-14
5486.36 4.146e-14
5489.04 4.1642e-14
5491.71 4.2295e-14
5494.38 4.2689e-14
5497.06 4.2919e-14
5499.73 4.1232e-14
5502.4 4.1082e-14
5505.07 4.3274e-14
5507.75 4.3323e-14
5510.42 4.3707e-14
5513.09 4.3769e-14
5515.77 4.3868e-14
5518.44 4.2547e-14
5521.11 4.265e-14
5523.79 4.1932e-14
5526.46 4.2596e-14
5529.13 4.2751e-14
5531.8 4.4031e-14
5534.48 4.4249e-14
5537.15 4.2815e-14
5539.82 4.2427e-14
5542.5 4.2347e-14
5545.17 4.3132e-14
5547.84 4.3734e-14
5550.51 4.3827e-14
5553.19 4.4767e-14
5555.86 4.2773e-14
5558.53 4.211e-14
5561.21 4.2943e-14
5563.88 4.2961e-14
5566.55 4.123e-14
5569.22 4.1322e-14
5571.9 4.1918e-14
5574.57 4.1786e-14
5577.24 4.2017e-14
5579.92 4.1591e-14
5582.59 4.1811e-14
5585.26 4.1404e-14
5587.93 4.0137e-14
5590.61 3.9809e-14
5593.28 3.9905e-14
5595.95 4.0198e-14
5598.63 4.0834e-14
5601.3 4.1263e-14
5603.97 4.2902e-14
5606.64 4.3041e-14
5609.32 4.2913e-14
5611.99 4.1412e-14
5614.66 4.0628e-14
5617.34 4.2095e-14
5620.01 4.2587e-14
5622.68 4.2214e-14
5625.36 4.2161e-14
5628.03 4.1569e-14
5630.7 4.2577e-14
5633.37 4.2726e-14
5636.05 4.2831e-14
5638.72 4.2352e-14
5641.39 4.215e-14
5644.07 4.2848e-14
5646.74 4.2346e-14
5649.41 4.1565e-14
5652.08 4.2917e-14
5654.76 4.2174e-14
5657.43 4.1452e-14
5660.1 4.2148e-14
5662.78 4.2424e-14
5665.45 4.4073e-14
5668.12 4.3951e-14
5670.79 4.3456e-14
5673.47 4.4182e-14
5676.14 4.4308e-14
5678.81 4.3501e-14
5681.49 4.3176e-14
5684.16 4.3803e-14
5686.83 4.2959e-14
5689.5 4.3032e-14
5692.18 4.3257e-14
5694.85 4.2015e-14
5697.52 4.2022e-14
5700.2 4.3129e-14
5702.87 4.2658e-14
5705.54 4.112e-14
5708.22 4.1826e-14
5710.89 4.0719e-14
5713.56 4.2771e-14
5716.23 4.0982e-14
5718.91 4.4201e-14
5721.58 4.3395e-14
5724.25 4.4082e-14
5726.93 4.3245e-14
5729.6 4.4778e-14
5732.27 4.4961e-14
5734.94 4.4281e-14
5737.62 4.4292e-14
5740.29 4.5519e-14
5742.96 4.3199e-14
5745.64 4.3803e-14
5748.31 4.5118e-14
5750.98 4.4043e-14
5753.65 4.3368e-14
5756.33 4.3171e-14
5759.0 4.3899e-14
5761.67 4.2145e-14
5764.35 4.47e-14
5767.02 4.5585e-14
5769.69 4.4397e-14
5772.36 4.2329e-14
5775.04 4.0646e-14
5777.71 4.2364e-14
5780.38 4.196e-14
5783.06 4.169e-14
5785.73 4.0634e-14
5788.4 4.296e-14
5791.07 4.3079e-14
5793.75 4.4261e-14
5796.42 4.188e-14
5799.09 4.4423e-14
5801.77 4.3752e-14
5804.44 4.6473e-14
5807.11 4.651e-14
5809.79 4.5529e-14
5812.46 4.4115e-14
5815.13 4.4318e-14
5817.8 4.2989e-14
5820.48 4.5371e-14
5823.15 4.2473e-14
5825.82 4.2652e-14
5828.5 4.2737e-14
5831.17 4.3403e-14
5833.84 4.4386e-14
5836.51 4.5513e-14
5839.19 4.6007e-14
5841.86 4.4148e-14
5844.53 4.3188e-14
5847.21 4.2136e-14
5849.88 4.2928e-14
5852.55 4.171e-14
5855.22 4.232e-14
5857.9 4.3353e-14
5860.57 4.3142e-14
5863.24 4.2247e-14
5865.92 4.2982e-14
5868.59 4.3885e-14
5871.26 4.4166e-14
5873.93 4.437e-14
5876.61 4.473e-14
5879.28 4.3633e-14
5881.95 4.2623e-14
5884.63 4.0357e-14
5887.3 3.9295e-14
5889.97 3.9024e-14
5892.64 3.7229e-14
5895.32 3.8924e-14
5897.99 3.6215e-14
5900.66 3.8763e-14
5903.34 3.8719e-14
5906.01 4.008e-14
5908.68 4.0926e-14
5911.36 4.269e-14
5914.03 4.2316e-14
5916.7 4.3342e-14
5919.37 4.2894e-14
5922.05 4.0879e-14
5924.72 4.1105e-14
5927.39 4.2751e-14
5930.07 4.1641e-14
5932.74 4.2392e-14
5935.41 4.2723e-14
5938.08 4.3705e-14
5940.76 4.4078e-14
5943.43 4.2719e-14
5946.1 4.3052e-14
5948.78 4.3352e-14
5951.45 4.1471e-14
5954.12 4.1458e-14
5956.79 4.1881e-14
5959.47 4.0287e-14
5962.14 4.242e-14
5964.81 4.3627e-14
5967.49 4.3126e-14
5970.16 4.3751e-14
5972.83 4.2855e-14
5975.5 4.1511e-14
5978.18 4.2011e-14
5980.85 4.4932e-14
5983.52 4.4247e-14
5986.2 4.157e-14
5988.87 4.2367e-14
5991.54 4.3014e-14
5994.21 4.2249e-14
5996.89 4.2177e-14
5999.56 4.2212e-14
6002.23 4.3188e-14
6004.91 4.4464e-14
6007.58 4.3338e-14
6010.25 4.187e-14
6012.93 4.1299e-14
6015.6 4.0922e-14
6018.27 4.3109e-14
6020.94 4.4614e-14
6023.62 4.1639e-14
6026.29 4.23e-14
6028.96 4.263e-14
6031.64 4.6525e-14
6034.31 4.3274e-14
6036.98 4.2804e-14
6039.65 4.4936e-14
6042.33 4.3493e-14
6045.0 4.4119e-14
6047.67 4.349e-14
6050.35 4.466e-14
6053.02 4.1867e-14
6055.69 4.3574e-14
6058.36 4.2446e-14
6061.04 4.4966e-14
6063.71 4.4988e-14
6066.38 4.4817e-14
6069.06 4.263e-14
6071.73 4.2407e-14
6074.4 4.5669e-14
6077.07 4.307e-14
6079.75 4.2591e-14
6082.42 4.4114e-14
6085.09 4.5381e-14
6087.77 4.3251e-14
6090.44 4.167e-14
6093.11 4.2637e-14
6095.78 4.3664e-14
6098.46 4.1929e-14
6101.13 4.32e-14
6103.8 4.3312e-14
6106.48 4.4297e-14
6109.15 4.3702e-14
6111.82 4.4222e-14
6114.5 4.4014e-14
6117.17 4.3271e-14
6119.84 4.3428e-14
6122.51 4.282e-14
6125.19 4.2318e-14
6127.86 4.4345e-14
6130.53 4.3691e-14
6133.21 4.377e-14
6135.88 4.3201e-14
6138.55 4.3231e-14
6141.22 4.0569e-14
6143.9 4.3504e-14
6146.57 4.3549e-14
6149.24 4.4224e-14
6151.92 4.2849e-14
6154.59 4.2754e-14
6157.26 4.0452e-14
6159.93 4.1765e-14
6162.61 3.9962e-14
6165.28 3.9614e-14
6167.95 4.072e-14
6170.63 4.0969e-14
6173.3 4.1101e-14
6175.97 4.2104e-14
6178.64 4.1749e-14
6181.32 4.1539e-14
6183.99 4.1541e-14
6186.66 4.3074e-14
6189.34 4.1503e-14
6192.01 4.1858e-14
6194.68 4.1343e-14
6197.35 4.2259e-14
6200.03 4.2955e-14
6202.7 4.0402e-14
6205.37 4.2278e-14
6208.05 4.1982e-14
6210.72 4.2355e-14
6213.39 4.0148e-14
6216.07 4.03e-14
6218.74 3.8675e-14
6221.41 3.9898e-14
6224.08 4.1034e-14
6226.76 4.0389e-14
6229.43 3.9078e-14
6232.1 4.0213e-14
6234.78 3.9673e-14
6237.45 4.0097e-14
6240.12 4.01e-14
6242.79 3.9229e-14
6245.47 4.0553e-14
6248.14 4.1607e-14
6250.81 4.0397e-14
6253.49 3.8662e-14
6256.16 3.9867e-14
6258.83 4.1469e-14
6261.5 4.0044e-14
6264.18 4.0844e-14
6266.85 4.172e-14
6269.52 4.2103e-14
6272.2 4.2975e-14
6274.87 4.2306e-14
6277.54 4.2986e-14
6280.21 4.2134e-14
6282.89 4.2162e-14
6285.56 4.0926e-14
6288.23 4.143e-14
6290.91 4.1742e-14
6293.58 4.3547e-14
6296.25 4.1133e-14
6298.92 4.3617e-14
6301.6 4.0432e-14
6304.27 4.2851e-14
6306.94 4.0829e-14
6309.62 4.3344e-14
6312.29 4.0804e-14
6314.96 4.3636e-14
6317.64 4.4657e-14
6320.31 4.3548e-14
6322.98 4.1656e-14
6325.65 3.9015e-14
6328.33 4.1266e-14
6331.0 4.0596e-14
6333.67 4.1187e-14
6336.35 4.1017e-14
6339.02 4.1636e-14
6341.69 4.1155e-14
6344.36 4.1034e-14
6347.04 4.0699e-14
6349.71 4.0708e-14
6352.38 3.9275e-14
6355.06 3.9236e-14
6357.73 3.9484e-14
6360.4 3.9887e-14
6363.07 3.9713e-14
6365.75 4.0018e-14
6368.42 4.2202e-14
6371.09 4.2155e-14
6373.77 4.0343e-14
6376.44 4.1879e-14
6379.11 3.9821e-14
6381.78 4.0864e-14
6384.46 4.1353e-14
6387.13 4.0831e-14
6389.8 4.005e-14
6392.48 3.8766e-14
6395.15 3.9719e-14
6397.82 4.1248e-14
6400.49 4.0713e-14
6403.17 4.0917e-14
6405.84 3.9179e-14
6408.51 4.0697e-14
6411.19 4.1216e-14
6413.86 4.2908e-14
6416.53 4.2094e-14
6419.21 4.1812e-14
6421.88 4.1701e-14
6424.55 4.0695e-14
6427.22 4.1136e-14
6429.9 4.1856e-14
6432.57 4.1713e-14
6435.24 4.2323e-14
6437.92 4.2454e-14
6440.59 4.2522e-14
6443.26 4.251e-14
6445.93 4.097e-14
6448.61 4.3209e-14
6451.28 4.1891e-14
6453.95 4.2757e-14
6456.63 4.2942e-14
6459.3 4.347e-14
6461.97 4.304e-14
6464.64 4.3662e-14
6467.32 4.4819e-14
6469.99 4.3445e-14
6472.66 4.2999e-14
6475.34 4.1327e-14
6478.01 4.2377e-14
6480.68 4.3448e-14
6483.35 4.2618e-14
6486.03 4.3449e-14
6488.7 4.2004e-14
6491.37 4.2988e-14
6494.05 4.0584e-14
6496.72 4.2815e-14
6499.39 3.9922e-14
6502.06 4.1525e-14
6504.74 4.0662e-14
6507.41 4.1929e-14
6510.08 4.18e-14
6512.76 3.995e-14
6515.43 4.1038e-14
6518.1 4.2752e-14
6520.78 4.456e-14
6523.45 4.3333e-14
6526.12 4.3622e-14
6528.79 4.3413e-14
6531.47 4.3123e-14
6534.14 4.3499e-14
6536.81 4.3538e-14
6539.49 4.4281e-14
6542.16 4.3655e-14
6544.83 4.5327e-14
6547.5 4.7944e-14
6550.18 4.7423e-14
6552.85 5.1191e-14
6555.52 5.7669e-14
6558.2 6.5484e-14
6560.87 6.6553e-14
6563.54 6.9034e-14
6566.21 7.0703e-14
6568.89 7.2621e-14
6571.56 7.4446e-14
6574.23 7.3557e-14
6576.91 7.4101e-14
6579.58 7.115e-14
6582.25 6.4269e-14
6584.92 6.033e-14
6587.6 6.0147e-14
6590.27 5.8645e-14
6592.94 5.6684e-14
6595.62 5.5197e-14
6598.29 5.1899e-14
6600.96 4.8256e-14
6603.63 4.6677e-14
6606.31 4.3717e-14
6608.98 4.2661e-14
6611.65 4.2609e-14
6614.33 4.4257e-14
6617.0 4.5951e-14
6619.67 4.4169e-14
6622.35 4.595e-14
6625.02 4.373e-14
6627.69 4.5621e-14
6630.36 4.3766e-14
6633.04 4.2692e-14
6635.71 4.3854e-14
6638.38 4.5499e-14
6647.36 4.2359e-14
6662.68 4.2159e-14
6678.04 4.2349e-14
6693.44 4.186e-14
6708.87 4.1567e-14
6724.33 3.9327e-14
6739.84 4.1271e-14
6755.37 4.0142e-14
6770.94 4.1452e-14
6786.55 4.2218e-14
6802.2 4.0592e-14
6817.88 4.1342e-14
6833.59 4.1528e-14
6849.35 3.9655e-14
6865.14 3.9468e-14
6880.96 4.0475e-14
6896.83 4.0657e-14
6912.72 4.0746e-14
6928.66 4.0183e-14
6944.63 4.159e-14
6960.64 4.0732e-14
6976.69 4.2353e-14
6992.77 4.2445e-14
7008.89 4.1189e-14
7025.05 4.0154e-14
7041.24 4.2041e-14
7057.47 4.3015e-14
7073.74 3.9135e-14
7090.05 4.032e-14
7106.39 3.9488e-14
7122.77 3.9211e-14
7139.19 3.6843e-14
7155.65 3.7094e-14
7172.15 3.6834e-14
7188.68 3.7e-14
7205.25 3.777e-14
7221.86 3.8913e-14
7238.51 3.9814e-14
7255.2 4.0643e-14
7271.92 3.9621e-14
7288.69 3.9253e-14
7305.49 4.0815e-14
7322.33 4.1093e-14
7339.21 4.0899e-14
7356.13 4.175e-14
7373.09 4.1172e-14
7390.08 4.1643e-14
7407.12 4.1352e-14
7424.19 4.0498e-14
7441.31 4.2402e-14
7458.46 4.2396e-14
7475.65 4.2586e-14
7492.89 4.2581e-14
7510.16 4.287e-14
7527.47 4.3262e-14
7544.83 4.3256e-14
7562.22 4.2559e-14
7579.65 4.1489e-14
7597.12 4.1009e-14
7614.64 4.0534e-14
7632.19 4.081e-14
7649.78 4.0993e-14
7667.42 3.9052e-14
7685.09 3.9957e-14
7702.81 3.9042e-14
7720.57 3.8501e-14
7738.37 3.9302e-14
7756.2 3.6844e-14
7774.09 3.9111e-14
7792.01 3.9106e-14
7809.97 3.8921e-14
7827.97 3.9914e-14
7846.02 3.909e-14
7864.1 3.9629e-14
7882.23 3.908e-14
7900.4 3.9165e-14
7918.61 3.8004e-14
7936.87 3.8175e-14
7955.17 3.7473e-14
7973.5 3.8606e-14
7991.88 3.9409e-14
8010.31 3.8595e-14
8028.77 3.9946e-14
8047.28 4.059e-14
8065.83 4.0584e-14
8084.43 3.9201e-14
8103.06 3.7691e-14
8121.74 3.9552e-14
8140.47 3.8825e-14
8159.23 3.873e-14
8178.04 3.837e-14
8196.89 3.7578e-14
8215.79 3.9525e-14
8234.73 3.7222e-14
8253.71 4.0341e-14
8272.74 4.0428e-14
8291.81 3.8692e-14
8310.92 3.8332e-14
8330.08 3.7282e-14
8349.28 3.8057e-14
8368.53 3.8938e-14
8387.82 3.8221e-14
8407.16 3.8128e-14
8426.54 3.8653e-14
8445.96 3.6068e-14
8465.43 3.7158e-14
8484.95 3.8106e-14
8504.51 3.4668e-14
8524.11 3.5226e-14
8543.76 3.6375e-14
8563.46 3.7216e-14
8583.2 3.7211e-14
8602.99 3.7034e-14
8622.82 3.6269e-14
8642.69 3.7194e-14
8662.62 3.6092e-14
8682.59 3.4861e-14
8702.6 3.6081e-14
8722.67 3.6409e-14
8742.77 3.7166e-14
8762.93 3.6398e-14
8783.13 3.6309e-14
8803.38 3.6809e-14
8823.67 3.7834e-14
8844.01 3.7309e-14
8864.4 3.7304e-14
8884.83 3.4889e-14
8905.31 3.586e-14
8925.84 3.627e-14
8946.42 3.6684e-14
8967.04 3.5844e-14
8987.71 3.5265e-14
9008.43 3.3211e-14
9029.2 3.3979e-14
9050.02 3.7683e-14
9070.88 3.5081e-14
9091.78 3.5157e-14
9112.74 3.6303e-14
9133.75 3.7057e-14
9154.81 3.4898e-14
9175.91 3.4973e-14
9197.07 3.5454e-14
9218.27 3.4009e-14
9239.51 3.2925e-14
9260.82 3.495e-14
9282.16 3.5924e-14
9303.56 3.3909e-14
9325.01 3.6161e-14
9346.51 3.6072e-14
9368.05 3.5489e-14
9389.64 3.606e-14
9411.29 3.5234e-14
9432.99 3.6382e-14
9454.73 3.5877e-14
9476.53 3.6791e-14
9498.37 3.687e-14
9520.27 3.5859e-14
9542.22 3.5037e-14
9564.21 3.593e-14
9586.26 3.6676e-14
9608.36 3.6084e-14
9630.51 3.6328e-14
9652.71 3.5741e-14
9674.96 3.5735e-14
9697.26 3.6226e-14
9719.62 3.5558e-14
9742.02 3.4984e-14
9764.48 3.5221e-14
9786.99 3.4731e-14
9809.56 3.5698e-14
9832.17 3.5284e-14
9854.83 3.5522e-14
9877.55 3.5271e-14
9900.32 3.5265e-14
9923.14 3.5341e-14
9946.02 3.5497e-14
9968.95 3.5573e-14
9991.93 3.5403e-14
10014.96 3.5643e-14
10084.38 3.5135e-14
10130.93 3.6107e-14
10177.69 3.5845e-14
10224.66 3.6331e-14
10271.87 3.6654e-14
10295.54 3.6647e-14
10511.12 3.5213e-14
10706.54 3.3396e-14
10905.6 3.2787e-14
11108.34 3.074e-14
11288.84 3.081e-14
11498.71 3.1095e-14
11712.49 3.0388e-14
11902.8 2.849e-14
12096.2 2.8622e-14
12292.76 2.8359e-14
12492.5 2.7334e-14
12695.49 2.6773e-14
12901.77 2.6284e-14
13111.41 2.5924e-14
13293.81 2.4929e-14
13509.81 2.4249e-14
13697.75 2.3807e-14
13888.31 2.2683e-14
14113.98 2.1414e-14
14310.32 2.1169e-14
14509.38 2.1414e-14
14711.23 2.0545e-14
14915.89 2.1023e-14
15088.61 2.1316e-14
15298.51 2.1812e-14
15511.34 2.1612e-14
15690.96 2.1169e-14
15909.24 2.0309e-14
16093.45 2.0263e-14
16317.33 2.0216e-14
16506.28 2.0077e-14
16697.42 2.0123e-14
16890.75 2.0031e-14
17086.34 1.9801e-14
17284.2 1.9041e-14
17484.34 1.8353e-14
17686.81 1.7446e-14
17891.6 1.6546e-14
18098.78 1.5585e-14
18308.35 1.5125e-14
18520.36 1.4544e-14
18691.71 1.3794e-14
18908.16 1.3449e-14
19083.12 1.3357e-14
19304.08 1.2993e-14
19482.71 1.2494e-14
19708.31 1.2014e-14
19890.65 1.1633e-14
20120.98 1.1474e-14
20307.17 1.1135e-14
20495.05 1.1084e-14
20684.7 1.0882e-14
20876.08 1.0708e-14
21117.82 1.0585e-14
21313.23 1.0416e-14
21510.42 1.0249e-14
21709.47 9.9471e-15
21910.35 9.7881e-15
22113.07 9.5213e-15
22317.69 9.2618e-15
22524.18 9.0719e-15
22680.32 8.8246e-15
22890.19 7.8831e-15
23101.98 7.7929e-15
23315.75 6.8029e-15
23477.35 6.3635e-15
23694.6 6.4372e-15
23913.82 5.9115e-15
24079.6 5.6454e-15
24302.39 5.5042e-15
24527.27 5.0431e-15
24697.3 4.8719e-15
24925.8 4.0804e-15
25098.59 3.9967e-15
25272.56 3.9967e-15
25506.41 3.9509e-15
25683.2 4.0244e-15
25920.85 3.96e-15
26100.52 3.9509e-15
26281.45 3.8432e-15
26524.61 3.808e-15
26708.49 3.7299e-15
26893.61 3.6787e-15
27080.04 3.6199e-15
27330.59 3.5457e-15
27520.06 3.489e-15
27710.8 3.4017e-15
27902.9 3.3628e-15
28096.3 3.2938e-15
28291.07 3.2486e-15
28487.16 3.1893e-15
28684.61 3.1239e-15
28883.46 3.081e-15
29083.66 3.0318e-15
29285.27 2.9696e-15
29488.25 2.9221e-15
29692.68 2.8754e-15
29898.48 2.8229e-15
30105.74 2.7842e-15
30314.41 2.7397e-15
30524.56 2.7208e-15
30665.44 2.6959e-15
30877.99 2.665e-15
31092.05 2.6406e-15
31307.55 2.6164e-15
31524.58 2.5864e-15
31670.08 2.5627e-15
31889.6 2.5509e-15
32110.66 2.5392e-15
32333.22 2.5392e-15
32482.49 2.5686e-15
32707.64 2.6773e-15
32934.38 3.0248e-15
33086.38 2.9971e-15
33315.71 2.5924e-15
33469.51 2.4249e-15
33701.5 2.3426e-15
33935.12 2.284e-15
34091.75 2.2372e-15
34328.04 2.2014e-15
34486.52 2.1612e-15
34725.55 2.1267e-15
34885.83 2.0927e-15
35127.66 2.0592e-15
35289.8 2.0216e-15
35534.43 1.9893e-15
35698.44 1.9575e-15
35863.21 1.9262e-15
36111.82 1.8954e-15
36278.49 1.8651e-15
36529.94 1.831e-15
36698.59 1.8018e-15
36867.97 1.7648e-15
37123.5 1.7366e-15
37294.89 1.7088e-15
37467.02 1.6738e-15
37726.75 1.6546e-15
37900.88 1.6244e-15
38075.81 1.5984e-15
38339.76 1.5729e-15
38516.72 1.5477e-15
38694.49 1.5195e-15
38873.12 1.4918e-15
39142.56 1.4679e-15
39323.22 1.4444e-15
39504.76 1.4148e-15
39687.09 1.3922e-15
39870.26 1.3636e-15
40054.28 1.3449e-15
40331.95 1.3234e-15
40518.1 1.2993e-15
40705.16 1.2785e-15
40893.03 1.2609e-15
41081.77 1.2408e-15
41271.38 1.2238e-15
41461.91 1.2042e-15
41653.28 1.1849e-15
41942.03 1.166e-15
42135.61 1.1474e-15
42330.08 1.1342e-15
42525.46 1.1161e-15
42721.78 1.1008e-15
42918.96 1.0634e-15
43117.05 1.0226e-15
43316.1 1.0202e-15
43516.03 9.8559e-16
43716.87 9.676e-16
43918.69 9.5213e-16
44121.4 9.2618e-16
44325.04 9.1348e-16
44529.62 9.0094e-16
44735.19 8.8043e-16
44941.67 8.7437e-16
45149.09 8.6039e-16
45253.21 8.4664e-16
45462.08 8.3887e-16
45671.9 8.2927e-16
45882.7 8.1226e-16
46094.52 8.0853e-16
46307.27 7.9744e-16
46521.0 7.8831e-16
46735.77 7.8469e-16
46951.47 7.7392e-16
47059.7 7.633e-16
47276.9 7.6155e-16
47495.16 7.4937e-16
47714.37 7.425e-16
47934.59 7.3569e-16
48045.09 7.2227e-16
48266.89 7.2393e-16
48489.66 7.1236e-16
48713.47 7.0488e-16
48938.35 6.9813e-16
49051.16 6.9079e-16
49277.55 6.8733e-16
49504.99 6.8075e-16
49733.53 6.7891e-16
49848.17 6.7023e-16
50078.24 6.6688e-16
50309.43 6.6204e-16
50541.63 6.5571e-16
50658.14 6.5182e-16
50774.91 6.4945e-16
50891.95 6.4858e-16
51009.25 6.4623e-16
51126.89 6.424e-16
51244.74 6.4006e-16
51362.87 6.3921e-16
51481.26 6.3543e-16
51599.93 6.3312e-16
51718.87 6.3374e-16
51838.14 6.3144e-16
51957.64 6.277e-16
52077.4 6.2543e-16
52197.44 6.246e-16
52317.76 6.2091e-16
52438.36 6.2009e-16
52559.23 6.1927e-16
52680.44 6.1845e-16
52801.88 6.1764e-16
52923.59 6.1399e-16
53045.58 6.1177e-16
53167.85 6.0956e-16
53290.41 6.1016e-16
53413.25 6.0796e-16
53536.43 6.0717e-16
53659.83 6.0637e-16
53783.52 6.0558e-16
53907.5 6.0479e-16
54031.76 6.04e-16
54156.3 6.0321e-16
54281.2 6.0104e-16
54406.32 6.0026e-16
54531.73 5.9948e-16
54657.43 5.987e-16
54783.42 5.9792e-16
54909.7 5.9715e-16
55036.27 5.9775e-16
55163.19 5.9697e-16
55290.35 5.9895e-16
55417.8 5.9818e-16
55545.54 5.9741e-16
55673.57 5.9802e-16
55801.9 6e-16
55930.59 5.9923e-16
56059.52 5.9984e-16
56188.74 6.0184e-16
56318.26 6.0107e-16
56448.08 6.0307e-16
56578.19 6.0647e-16
56708.61 6.0849e-16
56839.39 6.0912e-16
56970.41 6.1115e-16
57101.73 6.146e-16
57233.35 6.1807e-16
57365.28 6.2156e-16
57497.51 6.2508e-16
57630.05 6.2861e-16
57762.95 6.3363e-16
57896.1 6.3868e-16
58029.55 6.4526e-16
58163.32 6.504e-16
58297.39 6.5711e-16
58431.77 6.6694e-16
58566.52 6.7381e-16
58701.52 6.8233e-16
58836.83 6.9254e-16
58972.45 7.0453e-16
59089.66 8.5941e-16
59390.82 7.5987e-16
59692.0 7.9993e-16
59993.16 9.3907e-16
60294.32 8.9852e-16
60595.49 9.6004e-16
60896.65 1.0201e-15
61197.82 1.2706e-15
61498.99 1.7734e-15
61800.15 2.4473e-15
62101.32 2.8364e-15
62402.48 2.7771e-15
62703.64 2.3393e-15
63004.82 1.9407e-15
63305.98 1.6589e-15
63607.14 1.4635e-15
63908.32 1.2709e-15
64209.48 1.1384e-15
64510.64 9.9035e-16
64811.82 9.1051e-16
65112.98 8.9925e-16
65414.14 9.1917e-16
65715.31 8.6097e-16
66016.47 8.876e-16
66317.65 9.7686e-16
66618.81 9.0259e-16
66919.97 8.9694e-16
67221.15 9.1886e-16
67522.3 9.0597e-16
67823.47 9.3332e-16
68124.64 8.8432e-16
68425.8 8.7196e-16
68726.97 9.0197e-16
69028.14 1.0952e-15
69329.3 1.0742e-15
69630.47 1.3088e-15
69931.63 1.5481e-15
70232.81 1.2738e-15
70533.96 1.2067e-15
70835.13 1.1236e-15
71136.31 1.1605e-15
71437.46 1.1705e-15
71738.63 1.1519e-15
72039.8 1.2174e-15
72340.96 1.3347e-15
72642.13 1.3183e-15
72943.29 1.4066e-15
73224.75 1.2872e-15
73244.46 1.4864e-15
73545.63 1.5252e-15
73828.27 1.6046e-15
73846.79 1.7109e-15
74431.8 1.885e-15
75035.33 2.2873e-15
75638.87 2.6292e-15
76242.39 2.7878e-15
76845.94 2.6815e-15
77449.46 2.5863e-15
78052.99 2.4264e-15
78656.53 2.2607e-15
79260.06 2.0206e-15
79863.59 1.7398e-15
80467.12 1.514e-15
81070.65 1.3412e-15
81674.19 1.248e-15
82277.72 1.1327e-15
82881.26 1.1482e-15
83484.78 1.1885e-15
84088.33 1.1831e-15
84691.85 1.21e-15
85295.38 1.2641e-15
85898.92 1.3096e-15
86502.45 1.2413e-15
87105.97 1.0316e-15
87709.51 8.4701e-16
88313.04 6.7576e-16
88916.58 5.779e-16
89520.11 5.1495e-16
90123.64 4.778e-16
90727.18 4.0173e-16
91330.7 3.8069e-16
91934.23 3.4534e-16
92537.76 3.45e-16
93141.3 3.2144e-16
93744.83 3.3335e-16
94348.36 3.1261e-16
94951.9 3.3348e-16
95555.43 3.1106e-16
96158.96 3.4658e-16
96762.5 3.6851e-16
97365.99 3.2156e-16
97969.57 2.7239e-16
98573.06 2.6449e-16
99176.65 2.6179e-16
99780.14 2.6474e-16
100383.72 2.6032e-16
100987.23 2.5824e-16
101590.72 2.5908e-16
102194.3 2.6419e-16
102797.79 2.3709e-16
103401.38 2.5253e-16
104004.87 2.707e-16
104608.36 2.9289e-16
105211.95 3.3891e-16
105815.45 3.4836e-16
106419.03 3.6584e-16
107022.52 3.5677e-16
107626.11 3.7188e-16
108229.6 3.773e-16
108833.09 3.969e-16
109436.68 4.4583e-16
110040.17 5.4144e-16
110643.76 6.1107e-16
111247.25 7.68e-16
111850.84 1.2347e-15
112454.33 1.5011e-15
113057.82 1.3462e-15
113661.41 1.0974e-15
114264.9 8.903e-16
114868.48 7.2906e-16
115471.97 6.5202e-16
116075.57 5.9017e-16
116679.06 5.5317e-16
117282.55 5.4488e-16
117886.14 5.398e-16
118489.63 5.5137e-16
119093.21 5.8043e-16
119696.7 5.952e-16
120300.21 5.7985e-16
120903.79 5.6947e-16
121507.28 5.5772e-16
122110.87 5.6292e-16
122714.36 6.278e-16
123317.94 6.2768e-16
123921.44 6.2394e-16
124524.93 6.477e-16
125128.52 6.8349e-16
125732.01 7.2257e-16
126335.6 7.6058e-16
126939.09 7.9911e-16
127542.58 9.7212e-16
128146.16 1.3041e-15
128749.66 9.43e-16
129353.25 5.6733e-16
129956.73 4.8912e-16
130560.32 4.727e-16
131163.82 4.5784e-16
131767.31 4.5082e-16
132370.9 4.4994e-16
132974.38 4.4307e-16
133577.97 4.3796e-16
134181.47 4.3081e-16
134785.06 4.3153e-16
135388.54 4.3256e-16
135992.04 4.2518e-16
136595.63 4.0652e-16
137199.12 3.926e-16
137802.7 3.9122e-16
138406.19 3.7467e-16
139009.78 3.9409e-16
139613.28 3.6705e-16
140216.76 3.4817e-16
140820.36 3.479e-16
141339.68 3.6133e-16
142230.86 3.8347e-16
143122.15 3.6964e-16
144013.35 3.5877e-16
144904.53 3.2836e-16
145795.73 3.2606e-16
146687.02 3.0886e-16
147578.22 3.1086e-16
148469.4 3.1243e-16
149360.69 3.0325e-16
150251.89 3.0001e-16
151143.07 2.9302e-16
152034.27 2.8892e-16
152925.56 2.8978e-16
153816.75 2.9717e-16
154707.94 3.2108e-16
155599.23 4.0117e-16
156490.42 3.57e-16
157381.61 2.9701e-16
158272.9 3.059e-16
159164.09 3.0083e-16
160055.28 3.1471e-16
160946.47 3.0221e-16
161837.78 3.0644e-16
162728.95 3.357e-16
163620.14 3.8781e-16
164511.34 4.3171e-16
165402.63 3.9709e-16
166293.83 3.8209e-16
167185.03 3.8231e-16
168076.32 3.8626e-16
168967.5 3.9201e-16
169858.7 4.9292e-16
170749.98 5.3444e-16
171641.17 4.1817e-16
172532.37 3.7393e-16
173423.55 3.889e-16
174314.84 3.8086e-16
175206.03 3.439e-16
176097.22 3.1796e-16
176988.51 3.1761e-16
177879.7 3.1415e-16
178770.89 3.0226e-16
179662.18 2.9459e-16
180553.37 2.8525e-16
181444.57 2.8205e-16
182335.75 2.7458e-16
183227.04 2.7313e-16
184118.24 2.7415e-16
185009.42 2.8091e-16
185900.73 3.0903e-16
186791.93 4.5858e-16
187683.09 5.1821e-16
188574.29 3.1013e-16
189465.6 2.7849e-16
190356.78 2.9081e-16
191247.98 2.8478e-16
192139.26 2.7674e-16
193030.45 2.6916e-16
193921.65 2.7661e-16
194812.84 2.7015e-16
195704.13 2.7565e-16
196595.31 2.8378e-16
197486.51 2.7184e-16
198377.8 2.7127e-16
199789.09 2.5353e-16
201494.87 2.839e-16
203201.63 2.7742e-16
204909.39 2.6477e-16
206617.99 2.9284e-16
208327.47 2.9118e-16
210037.93 2.7368e-16
211749.28 2.8736e-16
213461.57 2.8851e-16
215174.85 2.8393e-16
216889.0 2.7716e-16
218604.13 2.9065e-16
220320.13 3.0104e-16
222037.08 2.9256e-16
223755.03 2.8159e-16
225473.85 2.9027e-16
227193.64 3.0104e-16
228914.41 3.064e-16
230636.05 2.9828e-16
232358.76 2.9758e-16
234082.24 2.9883e-16
235806.78 3.0806e-16
237532.31 3.0313e-16
239258.71 3.0034e-16
240986.07 3.0435e-16
242714.42 3.1163e-16
244443.63 3.0873e-16
246173.92 3.0624e-16
247905.09 3.0563e-16
249637.32 3.0877e-16
251370.41 3.1344e-16
253104.51 3.1392e-16
254839.55 3.1486e-16
256575.56 3.1451e-16
258312.55 3.3633e-16
260050.54 3.4661e-16
261789.47 3.2324e-16
263529.37 3.1759e-16
265270.25 3.1618e-16
267012.1 3.1398e-16
268755.04 3.0907e-16
270498.83 3.133e-16
272243.59 3.2063e-16
273989.41 3.188e-16
275736.24 3.1909e-16
277483.92 3.1697e-16
279232.66 3.1648e-16
280982.41 3.2783e-16
282733.21 3.3824e-16
284484.96 3.3062e-16
286237.62 3.1523e-16
287991.41 3.2076e-16
289746.1 3.2083e-16
291501.83 3.2268e-16
293258.56 3.1935e-16
295016.26 3.3728e-16
296775.02 3.2426e-16
298534.76 3.2871e-16
300295.47 3.2472e-16
302057.24 3.3039e-16
303820.11 3.2493e-16
305583.91 3.21e-16
307348.72 3.3211e-16
309114.47 3.3852e-16
310881.41 3.3114e-16
312649.23 3.3277e-16
314418.17 3.4025e-16
316188.02 3.1782e-16
317959.02 3.3525e-16
319731.03 3.3576e-16
321503.95 3.3618e-16
323277.99 3.4473e-16
325053.1 3.3998e-16
326829.24 3.666e-16
328606.41 3.55e-16
330384.58 3.7684e-16
332163.76 3.8692e-16
333944.03 5.1397e-16
335725.45 5.0868e-16
337507.73 3.7773e-16
339291.19 3.7653e-16
