# col1 col2
# An Atlas of Galaxy Spectral Energy Distributions from the Ultraviolet to the Mid-Infrared
# Brown et al. (2014)
# http://dx.doi.org/10.5072/03/529D3551F0117
# 
# Column 1 : Restframe Wavelength (Angstrom)
# Column 2 : Flux per unit wavelength (ergs/s/cm^2/Angstrom)
# Column 3 : Observed wavelength (Angstrom)
# Column 4 : Source (0 = model, 1 = Optical Spectrum, 2 = Akari, 3 = Spitzer IRS)
# 
100.04 5.2147e-30
101.9 9.4456e-30
104.03 1.672e-29
105.97 2.8989e-29
107.94 4.9343e-29
109.95 8.322e-29
114.07 2.2041e-28
118.08 5.4479e-28
121.11 1.0672e-27
125.08 2.4001e-27
127.11 3.5337e-27
127.99 4.2779e-27
130.97 7.4e-27
131.88 8.8762e-27
134.02 1.2567e-26
137.14 2.0808e-26
140.02 3.3746e-26
142.95 5.4104e-26
146.95 9.8227e-26
151.07 1.7188e-25
154.95 2.919e-25
158.92 4.822e-25
161.87 6.922e-25
166.03 1.0996e-24
169.89 1.7109e-24
173.05 2.3455e-24
177.08 3.5256e-24
179.96 4.7231e-24
182.04 5.7178e-24
185.86 8.2647e-24
191.06 1.2801e-23
194.17 1.649e-23
197.78 2.2815e-23
201.92 3.1205e-23
205.2 3.9105e-23
209.98 5.6134e-23
215.86 8.4963e-23
219.88 1.1047e-22
222.94 1.3342e-22
227.08 1.707e-22
230.24 1.6415e-21
233.98 1.9917e-21
239.98 2.6015e-21
246.14 3.3283e-21
251.87 4.2289e-21
257.15 4.9004e-21
260.12 5.6134e-21
263.74 6.5347e-21
269.26 7.7131e-21
274.27 9.0621e-21
278.73 1.0453e-20
283.91 1.2224e-20
289.85 1.4429e-20
295.92 1.6797e-20
300.73 1.8291e-20
307.74 2.2041e-20
317.82 2.8723e-20
328.23 3.5829e-20
338.2 4.3876e-20
347.68 5.2994e-20
356.6 6.2984e-20
365.75 7.4341e-20
375.13 8.5947e-20
384.75 9.9135e-20
394.62 1.1647e-19
404.74 1.3466e-19
414.17 1.5178e-19
421.87 1.672e-19
429.71 1.8375e-19
440.74 2.1049e-19
451.0 2.3509e-19
460.45 2.5718e-19
470.09 2.846e-19
479.93 3.1422e-19
489.98 3.4216e-19
500.24 3.7604e-19
506.03 4.0293e-19
511.89 4.4898e-19
520.21 4.7668e-19
529.88 5.1313e-19
539.73 5.4354e-19
549.77 5.8241e-19
559.99 6.4007e-19
570.4 6.8585e-19
579.67 7.2649e-19
590.44 7.7666e-19
600.04 8.1513e-19
609.79 8.5552e-19
619.7 9.2306e-19
629.76 9.6879e-19
640.0 1.0262e-18
650.4 1.0721e-18
657.93 1.1047e-18
665.55 1.1541e-18
674.81 1.2112e-18
685.77 1.248e-18
695.31 1.3159e-18
704.98 1.3497e-18
716.44 1.4362e-18
726.4 1.4936e-18
734.82 1.5425e-18
745.04 1.593e-18
755.4 1.6452e-18
764.15 1.6874e-18
774.78 1.7548e-18
785.56 1.8081e-18
794.65 1.8674e-18
805.71 1.9285e-18
815.04 1.9871e-18
824.48 2.0475e-18
835.95 2.057e-18
845.63 2.1589e-18
855.42 2.2092e-18
865.32 2.2763e-18
875.34 2.3347e-18
885.48 2.3891e-18
895.73 2.4447e-18
904.02 2.4902e-18
914.49 3.0425e-18
925.08 4.605e-18
935.79 6.1977e-18
944.45 8.5159e-18
955.38 9.6656e-18
964.23 1.12e-17
975.39 7.5029e-18
984.42 1.1974e-17
995.81 1.1837e-17
1005.03 1.286e-17
1014.33 1.2742e-17
1026.07 8.9584e-18
1035.57 1.2596e-17
1045.15 1.4731e-17
1054.82 1.497e-17
1064.58 1.4596e-17
1074.43 1.5425e-17
1084.37 1.4833e-17
1094.41 1.6227e-17
1104.53 1.6227e-17
1114.75 1.6566e-17
1125.07 1.6302e-17
1135.48 1.7307e-17
1145.98 1.7267e-17
1153.93 1.7751e-17
1164.6 1.8207e-17
1175.38 1.6758e-17
1186.26 1.8588e-17
1194.48 1.804e-17
1205.53 1.707e-17
1213.89 1.2394e-17
1225.12 1.8207e-17
1233.61 2.0194e-17
1245.03 2.1e-17
1253.66 2.1589e-17
1265.26 2.194e-17
1274.03 2.2921e-17
1285.81 2.3617e-17
1294.73 2.3455e-17
1303.7 2.4112e-17
1315.77 2.5482e-17
1324.89 2.5896e-17
1334.07 2.6196e-17
1346.41 2.7557e-17
1355.75 2.8329e-17
1365.14 2.8856e-17
1374.61 2.9732e-17
1384.13 3.0848e-17
1393.73 3.0285e-17
1403.39 3.0991e-17
1416.38 3.3902e-17
1426.19 3.4772e-17
1436.08 3.616e-17
1442.71 3.7259e-17
1446.03 3.7864e-17
1456.06 3.8925e-17
1466.15 4.0016e-17
1476.31 4.1517e-17
1486.55 4.3274e-17
1493.41 4.4795e-17
1503.76 4.6476e-17
1510.7 4.734e-17
1517.67 4.8331e-17
1524.68 4.9915e-17
1535.25 5.1195e-17
1545.89 5.2267e-17
1556.6 5.5237e-17
1563.79 5.8645e-17
1574.63 6.386e-17
1585.54 6.9379e-17
1596.53 7.3321e-17
1603.9 7.349e-17
1615.02 7.9292e-17
1626.22 8.2268e-17
1633.72 8.5947e-17
1645.05 9.5111e-17
1656.45 9.2732e-17
1664.1 1.1123e-16
1671.78 1.0501e-16
1675.63 1.2452e-16
1683.37 1.319e-16
1695.03 1.3342e-16
1706.78 1.4231e-16
1714.66 1.5425e-16
1726.55 1.6189e-16
1734.52 1.7629e-16
1746.54 1.8081e-16
1754.6 1.9554e-16
1766.76 1.8545e-16
1774.92 2.0334e-16
1783.11 2.1539e-16
1795.47 2.3347e-16
1803.76 2.5836e-16
1816.26 2.6868e-16
1824.65 2.656e-16
1833.07 2.794e-16
1845.77 2.6256e-16
1854.29 2.8394e-16
1867.15 3.0706e-16
1875.77 3.1422e-16
1884.42 3.2376e-16
1893.12 3.4137e-16
1906.24 3.4453e-16
1915.04 3.6579e-16
1923.88 3.7604e-16
1937.22 3.5911e-16
1946.16 4.0853e-16
1955.14 4.1998e-16
1968.69 4.5209e-16
1977.78 4.5418e-16
1982.34 4.605e-16
1996.08 4.6906e-16
2005.3 4.6583e-16
2014.55 4.8779e-16
2023.85 4.7014e-16
2033.19 5.2027e-16
2047.29 5.5237e-16
2056.74 5.2508e-16
2066.23 5.4229e-16
2075.77 6.1267e-16
2085.35 6.3567e-16
2094.97 6.3567e-16
2104.64 6.3567e-16
2114.36 6.687e-16
2124.12 6.7488e-16
2133.92 6.5649e-16
2143.77 7.1159e-16
2153.67 7.2149e-16
2163.61 7.0669e-16
2173.59 7.2482e-16
2183.63 7.6424e-16
2193.71 8.2078e-16
2203.83 8.1513e-16
2214.0 7.8928e-16
2224.22 8.2838e-16
2234.49 9.0621e-16
2244.8 8.8558e-16
2255.17 8.5552e-16
2265.57 8.5749e-16
2276.03 9.0841e-16
2286.54 9.5649e-16
2297.09 9.2666e-16
2302.39 9.8403e-16
2313.01 1.0027e-15
2323.69 9.4702e-16
2334.42 9.762e-16
2345.19 9.0722e-16
2356.02 1.0688e-15
2366.89 9.6844e-16
2372.35 1.0548e-15
2383.3 9.2542e-16
2394.3 1.0175e-15
2405.35 1.0249e-15
2416.45 1.059e-15
2427.61 1.2052e-15
2433.2 1.2054e-15
2444.43 1.2715e-15
2455.72 1.2868e-15
2467.05 1.3052e-15
2472.74 1.2641e-15
2484.15 1.2189e-15
2495.62 1.2307e-15
2507.14 1.4039e-15
2512.92 1.2371e-15
2518.71 1.179e-15
2524.52 1.1847e-15
2536.17 1.2699e-15
2547.88 1.3091e-15
2553.75 1.4357e-15
2565.54 1.4231e-15
2577.38 1.5291e-15
2583.32 1.5329e-15
2595.24 1.523e-15
2607.22 1.4924e-15
2613.23 1.4554e-15
2625.3 1.6075e-15
2637.42 1.7232e-15
2643.49 1.9339e-15
2655.7 2.0306e-15
2667.95 1.9046e-15
2674.1 2.004e-15
2686.45 2.0801e-15
2692.64 1.9507e-15
2705.07 2.0388e-15
2717.55 1.9167e-15
2723.82 1.9304e-15
2736.39 2.0316e-15
2742.7 1.7986e-15
2755.36 1.9325e-15
2768.08 2.0956e-15
2774.46 2.1948e-15
2787.27 2.0587e-15
2793.69 1.4951e-15
2806.59 1.6439e-15
2813.06 2.3226e-15
2826.04 2.4387e-15
2832.56 2.428e-15
2845.63 2.3466e-15
2852.19 2.0871e-15
2865.35 2.4873e-15
2871.96 2.5575e-15
2885.22 2.5823e-15
2891.87 2.6309e-15
2911.91 2.8536e-15
2932.1 2.8489e-15
2952.42 2.8573e-15
2972.89 2.9393e-15
2986.61 3.0161e-15
3007.31 3.0884e-15
3028.16 3.1624e-15
3049.15 3.2682e-15
3070.28 3.3006e-15
3091.56 3.341e-15
3112.99 3.4133e-15
3127.36 3.4384e-15
3149.04 3.4886e-15
3170.87 3.6136e-15
3192.85 3.5337e-15
3207.59 3.6849e-15
3229.82 3.6368e-15
3252.21 3.9175e-15
3267.22 4.1324e-15
3289.87 4.183e-15
3312.67 4.2343e-15
3320.31 4.304e-15
3327.96 4.1112e-15
3335.63 4.3258e-15
3343.32 4.2773e-15
3351.03 4.1235e-15
3358.75 4.3991e-15
3366.5 4.0875e-15
3374.26 3.6945e-15
3382.04 4.1082e-15
3389.83 4.3526e-15
3397.65 4.3336e-15
3405.48 4.4151e-15
3413.33 4.4161e-15
3421.2 4.6253e-15
3429.09 4.5002e-15
3436.99 4.6487e-15
3444.91 4.27e-15
3452.86 4.9605e-15
3460.81 4.6948e-15
3468.79 4.5996e-15
3476.79 4.6969e-15
3484.8 4.9649e-15
3492.84 4.8418e-15
3500.89 4.7765e-15
3508.96 4.844e-15
3517.05 4.6698e-15
3525.16 4.7585e-15
3533.28 5.0787e-15
3541.43 5.2605e-15
3549.59 5.3004e-15
3557.77 5.1593e-15
3565.98 5.4184e-15
3574.2 4.766e-15
3582.44 5.0633e-15
3590.69 4.4948e-15
3598.97 5.2601e-15
3607.27 5.2153e-15
3615.58 5.2067e-15
3623.92 5.2101e-15
3632.27 5.7561e-15
3637.63 6.6361e-15
3640.35 5.8426e-15
3643.07 5.4949e-15
3645.79 4.9767e-15
3648.51 5.0221e-15
3651.23 5.3269e-15
3653.95 5.6624e-15
3656.67 6.0246e-15
3659.39 4.7819e-15
3662.11 6.2865e-15
3664.83 5.7738e-15
3667.55 5.7663e-15
3670.27 5.9634e-15
3672.98 5.8779e-15
3675.7 5.362e-15
3678.42 6.4525e-15
3681.14 5.887e-15
3683.86 5.5272e-15
3686.58 5.2746e-15
3689.3 5.2972e-15
3692.02 4.9219e-15
3694.74 5.9525e-15
3697.46 5.7518e-15
3700.18 5.4713e-15
3702.9 5.663e-15
3705.62 6.1334e-15
3708.34 5.9042e-15
3711.06 4.9625e-15
3713.78 5.6317e-15
3716.5 5.2558e-15
3719.22 5.695e-15
3721.94 5.7051e-15
3724.66 6.2634e-15
3727.38 6.7471e-15
3730.1 6.5237e-15
3732.82 6.8989e-15
3735.54 7.6468e-15
3738.26 7.8854e-15
3740.98 6.6577e-15
3743.7 5.8141e-15
3746.42 5.5253e-15
3749.13 5.9451e-15
3751.85 5.6146e-15
3754.57 5.538e-15
3757.29 4.8308e-15
3760.01 5.1157e-15
3762.73 6.5105e-15
3765.45 6.7504e-15
3768.17 6.0081e-15
3770.89 6.4746e-15
3773.61 6.742e-15
3776.33 6.1988e-15
3779.05 6.4555e-15
3781.77 6.5407e-15
3784.49 6.7918e-15
3787.21 7.2997e-15
3789.93 8.1772e-15
3792.65 8.3531e-15
3795.37 7.758e-15
3798.09 7.4983e-15
3800.81 6.87e-15
3803.53 6.2121e-15
3806.25 5.5878e-15
3808.97 6.2934e-15
3811.69 7.0215e-15
3814.41 7.5835e-15
3817.13 7.5323e-15
3819.85 7.2716e-15
3822.56 7.0303e-15
3825.28 7.4411e-15
3828.0 7.011e-15
3830.72 6.154e-15
3833.44 6.3764e-15
3836.16 5.8645e-15
3838.88 6.1393e-15
3841.6 5.5159e-15
3844.32 4.5454e-15
3847.04 5.2226e-15
3849.76 5.9243e-15
3852.48 6.7447e-15
3855.2 6.8029e-15
3857.92 7.0676e-15
3860.64 8.1337e-15
3863.36 8.1302e-15
3866.08 8.3155e-15
3868.8 7.3601e-15
3871.52 7.9843e-15
3874.24 8.7954e-15
3876.96 8.9424e-15
3879.68 7.7785e-15
3882.4 7.4051e-15
3885.12 7.3314e-15
3887.84 7.2518e-15
3890.56 6.7879e-15
3893.28 6.2686e-15
3896.0 6.1456e-15
3898.71 6.3261e-15
3901.43 6.2598e-15
3904.15 6.8888e-15
3906.87 6.9744e-15
3909.59 7.6725e-15
3912.31 7.8125e-15
3915.03 8.2474e-15
3917.75 8.5546e-15
3920.47 8.7931e-15
3923.19 8.6884e-15
3925.91 8.1793e-15
3928.63 8.4348e-15
3931.35 7.9219e-15
3934.07 7.5004e-15
3936.79 6.7197e-15
3939.51 6.0079e-15
3942.23 4.8084e-15
3944.95 5.1622e-15
3947.67 6.2486e-15
3950.39 7.1503e-15
3953.11 7.821e-15
3955.83 8.1923e-15
3958.55 8.3132e-15
3961.27 8.4266e-15
3963.99 8.377e-15
3966.71 7.581e-15
3969.43 7.1294e-15
3972.14 6.1823e-15
3974.86 5.3558e-15
3977.58 4.5295e-15
3980.3 4.8385e-15
3983.02 5.6232e-15
3985.74 6.8846e-15
3988.46 7.7872e-15
3991.18 8.6023e-15
3993.9 9.1119e-15
3996.62 9.439e-15
3999.34 1.0139e-14
4002.06 1.0445e-14
4004.78 9.9476e-15
4007.5 9.2069e-15
4010.22 9.9476e-15
4012.94 1.001e-14
4015.66 1.0521e-14
4018.38 1.0774e-14
4021.1 1.0663e-14
4023.82 1.1753e-14
4026.54 1.0941e-14
4029.26 1.0812e-14
4031.98 1.1002e-14
4034.7 1.1663e-14
4037.42 1.136e-14
4040.14 1.0711e-14
4042.86 1.0864e-14
4045.58 1.0473e-14
4048.29 1.1493e-14
4051.01 1.1793e-14
4053.73 1.1068e-14
4056.45 1.0607e-14
4059.17 1.0984e-14
4061.89 1.0979e-14
4064.61 1.107e-14
4067.33 1.1162e-14
4070.05 1.0579e-14
4072.77 1.0532e-14
4075.49 1.002e-14
4078.21 1.0057e-14
4080.93 1.0356e-14
4083.65 1.0857e-14
4086.37 9.8778e-15
4089.09 1.002e-14
4091.81 1.0308e-14
4094.53 1.0382e-14
4097.25 1.0843e-14
4099.97 1.028e-14
4102.69 1.0414e-14
4105.41 9.0838e-15
4108.13 7.9866e-15
4110.85 7.7892e-15
4113.57 7.7506e-15
4116.29 8.2524e-15
4119.01 9.8486e-15
4121.73 1.0618e-14
4124.44 9.6334e-15
4127.16 1.0858e-14
4129.88 1.0179e-14
4132.6 1.0074e-14
4135.32 1.0448e-14
4138.04 1.048e-14
4140.76 9.9947e-15
4143.48 1.0877e-14
4146.2 1.1362e-14
4148.92 1.0414e-14
4151.64 1.1122e-14
4154.36 1.081e-14
4157.08 1.0827e-14
4159.8 1.1039e-14
4162.52 9.9985e-15
4165.24 1.0688e-14
4167.96 1.0536e-14
4170.68 1.1271e-14
4173.4 1.1264e-14
4176.12 1.1495e-14
4178.84 1.053e-14
4181.56 1.071e-14
4184.28 9.7255e-15
4187.0 1.0071e-14
4189.72 9.8043e-15
4192.44 1.085e-14
4195.16 1.07e-14
4197.88 1.0444e-14
4200.59 1.0768e-14
4203.31 1.045e-14
4206.03 1.0346e-14
4208.75 1.0888e-14
4211.47 1.0743e-14
4214.19 1.0357e-14
4216.91 1.1101e-14
4219.63 1.0635e-14
4222.35 1.0844e-14
4225.07 1.0728e-14
4227.79 1.0848e-14
4230.51 1.0948e-14
4233.23 1.037e-14
4235.95 1.0061e-14
4238.67 1.006e-14
4241.39 1.0634e-14
4244.11 1.0579e-14
4246.83 1.0462e-14
4249.55 1.1002e-14
4252.27 1.1566e-14
4254.99 1.083e-14
4257.71 1.0998e-14
4260.43 1.0746e-14
4263.15 1.0701e-14
4265.87 1.0256e-14
4268.59 1.0523e-14
4271.31 1.0865e-14
4274.03 1.0936e-14
4276.74 1.0938e-14
4279.46 1.0857e-14
4282.18 1.0306e-14
4284.9 1.0376e-14
4287.62 1.0655e-14
4290.34 1.1213e-14
4293.06 1.123e-14
4295.78 1.0478e-14
4298.5 1.0544e-14
4301.22 9.9484e-15
4303.94 1.0057e-14
4306.66 1.0261e-14
4309.38 9.3885e-15
4312.1 9.0123e-15
4314.82 8.5258e-15
4317.54 8.6484e-15
4320.26 9.4267e-15
4322.98 9.7652e-15
4325.7 1.0627e-14
4328.42 1.1207e-14
4331.14 1.0872e-14
4333.86 1.0541e-14
4336.58 1.0315e-14
4339.3 1.0247e-14
4342.02 1.0286e-14
4344.74 9.5433e-15
4347.46 9.1524e-15
4350.17 8.4106e-15
4352.89 8.7941e-15
4355.61 9.596e-15
4358.33 1.0271e-14
4361.05 1.0531e-14
4363.77 1.0265e-14
4366.49 1.1304e-14
4369.21 1.1703e-14
4371.93 1.2086e-14
4374.65 1.1846e-14
4377.37 1.1965e-14
4380.09 1.1194e-14
4382.81 1.1438e-14
4385.53 1.1649e-14
4388.25 1.1141e-14
4390.97 1.0609e-14
4393.69 1.0452e-14
4396.41 1.0705e-14
4399.13 1.0657e-14
4401.85 1.0409e-14
4404.57 1.1184e-14
4407.29 1.1536e-14
4410.01 1.1465e-14
4412.73 1.1199e-14
4415.45 1.1373e-14
4418.17 1.1669e-14
4420.89 1.1719e-14
4423.61 1.1795e-14
4426.32 1.1749e-14
4429.04 1.1777e-14
4431.76 1.2203e-14
4434.48 1.1982e-14
4437.2 1.1838e-14
4439.92 1.1845e-14
4442.64 1.1897e-14
4445.36 1.1936e-14
4448.08 1.2011e-14
4450.8 1.1942e-14
4453.52 1.204e-14
4456.24 1.2291e-14
4458.96 1.2472e-14
4461.68 1.2282e-14
4464.4 1.192e-14
4467.12 1.1676e-14
4469.84 1.1743e-14
4472.56 1.1493e-14
4475.28 1.1952e-14
4478.0 1.2068e-14
4480.72 1.2276e-14
4483.44 1.2707e-14
4486.16 1.2511e-14
4488.88 1.2263e-14
4491.6 1.2571e-14
4494.32 1.213e-14
4497.04 1.2645e-14
4499.75 1.2592e-14
4502.47 1.2323e-14
4505.19 1.2192e-14
4507.91 1.2513e-14
4510.63 1.2899e-14
4513.35 1.3116e-14
4516.07 1.2843e-14
4518.79 1.3606e-14
4521.51 1.3178e-14
4524.23 1.2848e-14
4526.95 1.2591e-14
4529.67 1.2389e-14
4532.39 1.232e-14
4535.11 1.2237e-14
4537.83 1.1774e-14
4540.55 1.1793e-14
4543.27 1.1418e-14
4545.99 1.1802e-14
4548.71 1.2013e-14
4551.43 1.2135e-14
4554.15 1.2304e-14
4556.87 1.2216e-14
4559.59 1.2169e-14
4562.31 1.2153e-14
4565.03 1.2218e-14
4567.75 1.2384e-14
4570.47 1.298e-14
4573.19 1.299e-14
4575.9 1.3089e-14
4578.62 1.2482e-14
4581.34 1.2834e-14
4584.06 1.3253e-14
4586.78 1.3235e-14
4589.5 1.259e-14
4592.22 1.2555e-14
4594.94 1.2444e-14
4597.66 1.263e-14
4600.38 1.2549e-14
4603.1 1.2533e-14
4605.82 1.2592e-14
4608.54 1.2879e-14
4611.26 1.2529e-14
4613.98 1.2598e-14
4616.7 1.3206e-14
4619.42 1.3021e-14
4622.14 1.2938e-14
4624.86 1.3197e-14
4627.58 1.2595e-14
4630.3 1.2989e-14
4633.02 1.3239e-14
4635.74 1.3297e-14
4638.46 1.2879e-14
4641.18 1.3057e-14
4643.9 1.2898e-14
4646.62 1.2705e-14
4649.34 1.2509e-14
4652.05 1.269e-14
4654.77 1.2312e-14
4657.49 1.2144e-14
4660.21 1.2245e-14
4662.93 1.2976e-14
4665.65 1.2914e-14
4668.37 1.2758e-14
4671.09 1.2503e-14
4673.81 1.2598e-14
4676.53 1.1942e-14
4679.25 1.2113e-14
4681.97 1.233e-14
4684.69 1.2335e-14
4687.41 1.2487e-14
4690.13 1.2755e-14
4692.85 1.2455e-14
4695.57 1.2802e-14
4698.29 1.2789e-14
4701.01 1.2944e-14
4703.73 1.2535e-14
4706.45 1.2525e-14
4709.17 1.2367e-14
4711.89 1.2395e-14
4714.61 1.2163e-14
4717.33 1.2329e-14
4720.05 1.2567e-14
4722.77 1.2203e-14
4725.48 1.2534e-14
4728.2 1.294e-14
4730.92 1.3191e-14
4733.64 1.2924e-14
4736.36 1.3039e-14
4739.08 1.3092e-14
4741.8 1.2846e-14
4744.52 1.3123e-14
4747.24 1.2655e-14
4749.96 1.3247e-14
4752.68 1.3048e-14
4755.4 1.3197e-14
4758.12 1.2889e-14
4760.84 1.3288e-14
4763.56 1.3175e-14
4766.28 1.2938e-14
4769.0 1.2963e-14
4771.72 1.2744e-14
4774.44 1.2689e-14
4777.16 1.2331e-14
4779.88 1.2941e-14
4782.6 1.3233e-14
4785.32 1.3032e-14
4788.04 1.332e-14
4790.76 1.3002e-14
4793.48 1.3146e-14
4796.2 1.2668e-14
4798.92 1.2867e-14
4801.63 1.3064e-14
4804.35 1.3635e-14
4807.07 1.3809e-14
4809.79 1.3193e-14
4812.51 1.2941e-14
4815.23 1.3188e-14
4817.95 1.3111e-14
4820.67 1.3393e-14
4823.39 1.3283e-14
4826.11 1.2935e-14
4828.83 1.3288e-14
4831.55 1.3645e-14
4834.27 1.338e-14
4836.99 1.3064e-14
4839.71 1.2919e-14
4842.43 1.2877e-14
4845.15 1.3349e-14
4847.87 1.2756e-14
4850.59 1.283e-14
4853.31 1.2406e-14
4856.03 1.2677e-14
4858.75 1.2027e-14
4861.47 1.1743e-14
4864.19 1.1641e-14
4866.91 1.0962e-14
4869.63 1.0661e-14
4872.35 1.0133e-14
4875.07 1.0159e-14
4877.78 1.0784e-14
4880.5 1.0731e-14
4883.22 1.1048e-14
4885.94 1.1319e-14
4888.66 1.1692e-14
4891.38 1.2169e-14
4894.1 1.2183e-14
4896.82 1.1726e-14
4899.54 1.1878e-14
4902.26 1.2468e-14
4904.98 1.2614e-14
4907.7 1.3054e-14
4910.42 1.3013e-14
4913.14 1.2881e-14
4915.86 1.2651e-14
4918.58 1.2698e-14
4921.3 1.2906e-14
4924.02 1.2709e-14
4926.74 1.2639e-14
4929.46 1.2465e-14
4932.18 1.2315e-14
4934.9 1.1982e-14
4937.62 1.2143e-14
4940.34 1.2804e-14
4943.06 1.2829e-14
4945.78 1.2593e-14
4948.5 1.2414e-14
4951.21 1.2882e-14
4953.93 1.2886e-14
4956.65 1.3291e-14
4959.37 1.3011e-14
4962.09 1.305e-14
4964.81 1.3127e-14
4967.53 1.3096e-14
4970.25 1.3108e-14
4972.97 1.2634e-14
4975.69 1.3053e-14
4978.41 1.3023e-14
4981.13 1.2802e-14
4983.85 1.2657e-14
4986.57 1.2715e-14
4989.29 1.2728e-14
4992.01 1.2488e-14
4994.73 1.2262e-14
4997.45 1.225e-14
5000.17 1.2135e-14
5002.89 1.2311e-14
5005.61 1.2448e-14
5008.33 1.2674e-14
5011.05 1.2427e-14
5013.77 1.2289e-14
5016.49 1.2636e-14
5019.21 1.2483e-14
5021.93 1.2031e-14
5024.65 1.1669e-14
5027.36 1.1794e-14
5030.08 1.1807e-14
5032.8 1.1857e-14
5035.52 1.2221e-14
5038.24 1.2325e-14
5040.96 1.2459e-14
5043.68 1.2617e-14
5046.4 1.2404e-14
5049.12 1.179e-14
5051.84 1.1874e-14
5054.56 1.2017e-14
5057.28 1.2473e-14
5060.0 1.2463e-14
5062.72 1.2402e-14
5065.44 1.2616e-14
5068.16 1.2834e-14
5070.88 1.2994e-14
5073.6 1.3007e-14
5076.32 1.2685e-14
5079.04 1.2573e-14
5081.76 1.231e-14
5084.48 1.2636e-14
5087.2 1.2488e-14
5089.92 1.2096e-14
5092.64 1.1769e-14
5095.36 1.204e-14
5098.08 1.2719e-14
5100.79 1.2653e-14
5103.51 1.2205e-14
5106.23 1.221e-14
5108.95 1.2374e-14
5111.67 1.2233e-14
5114.39 1.2468e-14
5117.11 1.2121e-14
5119.83 1.2183e-14
5122.55 1.2259e-14
5125.27 1.2407e-14
5127.99 1.2881e-14
5130.71 1.2703e-14
5133.43 1.2332e-14
5136.15 1.2079e-14
5138.87 1.2309e-14
5141.59 1.222e-14
5144.31 1.203e-14
5147.03 1.2149e-14
5149.75 1.1962e-14
5152.47 1.1772e-14
5155.19 1.1683e-14
5157.91 1.1482e-14
5160.63 1.186e-14
5163.35 1.1903e-14
5166.07 1.2052e-14
5168.79 1.249e-14
5171.51 1.2117e-14
5174.23 1.1588e-14
5176.94 1.0934e-14
5179.66 1.0364e-14
5182.38 1.0179e-14
5185.1 1.0579e-14
5187.82 1.1004e-14
5190.54 1.1366e-14
5193.26 1.1225e-14
5195.98 1.1245e-14
5198.7 1.1291e-14
5201.42 1.1281e-14
5204.14 1.1565e-14
5206.86 1.1757e-14
5209.58 1.1666e-14
5212.3 1.1979e-14
5215.02 1.2154e-14
5217.74 1.2127e-14
5220.46 1.1772e-14
5223.18 1.1995e-14
5225.9 1.2271e-14
5228.62 1.2017e-14
5231.34 1.2236e-14
5234.06 1.2278e-14
5236.78 1.2176e-14
5239.5 1.1953e-14
5242.22 1.21e-14
5244.94 1.2156e-14
5247.66 1.2336e-14
5250.38 1.2899e-14
5253.09 1.2962e-14
5255.81 1.2786e-14
5258.53 1.2488e-14
5261.25 1.2181e-14
5263.97 1.2362e-14
5266.69 1.2737e-14
5269.41 1.275e-14
5272.13 1.2328e-14
5274.85 1.1852e-14
5277.57 1.1442e-14
5280.29 1.1563e-14
5283.01 1.1375e-14
5285.73 1.1871e-14
5288.45 1.2441e-14
5291.17 1.2878e-14
5293.89 1.2898e-14
5296.61 1.2798e-14
5299.33 1.3303e-14
5302.05 1.3366e-14
5304.77 1.3562e-14
5307.49 1.3319e-14
5310.21 1.284e-14
5312.93 1.2801e-14
5315.65 1.3459e-14
5318.37 1.321e-14
5321.09 1.3445e-14
5323.81 1.3466e-14
5326.52 1.3205e-14
5329.24 1.3091e-14
5331.96 1.256e-14
5334.68 1.2746e-14
5337.4 1.2441e-14
5340.12 1.2402e-14
5342.84 1.2542e-14
5345.56 1.2449e-14
5348.28 1.3099e-14
5351.0 1.2645e-14
5353.72 1.2437e-14
5356.44 1.2739e-14
5359.16 1.265e-14
5361.88 1.2893e-14
5364.6 1.3357e-14
5367.32 1.3326e-14
5370.04 1.3426e-14
5372.76 1.326e-14
5375.48 1.2888e-14
5378.2 1.2496e-14
5380.92 1.2593e-14
5383.64 1.2743e-14
5386.36 1.281e-14
5389.08 1.2969e-14
5391.8 1.3061e-14
5394.52 1.3392e-14
5397.24 1.2991e-14
5399.96 1.3373e-14
5402.67 1.3014e-14
5405.39 1.2837e-14
5408.11 1.2413e-14
5410.83 1.259e-14
5413.55 1.2336e-14
5416.27 1.2116e-14
5418.99 1.2282e-14
5421.71 1.2217e-14
5424.43 1.2525e-14
5427.15 1.2821e-14
5429.87 1.2963e-14
5432.59 1.3202e-14
5435.31 1.3284e-14
5438.03 1.2802e-14
5440.75 1.2828e-14
5443.47 1.2726e-14
5446.19 1.2779e-14
5448.91 1.2785e-14
5451.63 1.3397e-14
5454.35 1.3472e-14
5457.07 1.3292e-14
5459.79 1.3058e-14
5462.51 1.3112e-14
5465.23 1.2881e-14
5467.95 1.2719e-14
5470.67 1.2956e-14
5473.39 1.2819e-14
5476.1 1.2998e-14
5478.82 1.2903e-14
5481.54 1.279e-14
5484.26 1.2491e-14
5486.98 1.2477e-14
5489.7 1.2417e-14
5492.42 1.2265e-14
5495.14 1.2466e-14
5497.86 1.2721e-14
5500.58 1.2567e-14
5503.3 1.2807e-14
5506.02 1.2814e-14
5508.74 1.2654e-14
5511.46 1.255e-14
5514.18 1.2134e-14
5516.9 1.2561e-14
5519.62 1.2132e-14
5522.34 1.2317e-14
5525.06 1.2692e-14
5527.78 1.305e-14
5530.5 1.2855e-14
5533.22 1.3048e-14
5535.94 1.3186e-14
5538.66 1.3172e-14
5541.38 1.2444e-14
5544.1 1.2311e-14
5546.82 1.2728e-14
5549.54 1.2894e-14
5552.25 1.3188e-14
5554.97 1.3096e-14
5557.69 1.3018e-14
5560.41 1.2918e-14
5563.13 1.3382e-14
5565.85 1.3164e-14
5568.57 1.3471e-14
5571.29 1.2858e-14
5574.01 1.2729e-14
5576.73 1.3063e-14
5579.45 1.2562e-14
5582.17 1.2385e-14
5584.89 1.2353e-14
5587.61 1.2475e-14
5590.33 1.2434e-14
5593.05 1.27e-14
5595.77 1.234e-14
5598.49 1.2352e-14
5601.21 1.2263e-14
5603.93 1.2625e-14
5606.65 1.242e-14
5609.37 1.2722e-14
5612.09 1.2642e-14
5614.81 1.2389e-14
5617.53 1.2918e-14
5620.25 1.3158e-14
5622.97 1.3171e-14
5625.69 1.2926e-14
5628.4 1.2088e-14
5631.12 1.2638e-14
5633.84 1.2397e-14
5636.56 1.2223e-14
5639.28 1.2674e-14
5642.0 1.2954e-14
5644.72 1.2841e-14
5647.44 1.2314e-14
5650.16 1.2593e-14
5652.88 1.2426e-14
5655.6 1.2985e-14
5658.32 1.2985e-14
5661.04 1.2794e-14
5663.76 1.2987e-14
5666.48 1.2646e-14
5669.2 1.2507e-14
5671.92 1.2349e-14
5674.64 1.2448e-14
5677.36 1.2322e-14
5680.08 1.292e-14
5682.8 1.292e-14
5685.52 1.3373e-14
5688.24 1.3615e-14
5690.96 1.3476e-14
5693.68 1.3205e-14
5696.4 1.2669e-14
5699.12 1.2732e-14
5701.83 1.2829e-14
5704.55 1.2934e-14
5707.27 1.3173e-14
5709.99 1.3154e-14
5712.71 1.2631e-14
5715.43 1.2681e-14
5718.15 1.2356e-14
5720.87 1.2413e-14
5723.59 1.2298e-14
5726.31 1.2615e-14
5729.03 1.2912e-14
5731.75 1.2791e-14
5734.47 1.3067e-14
5737.19 1.3125e-14
5739.91 1.3108e-14
5742.63 1.3014e-14
5745.35 1.3314e-14
5748.07 1.3098e-14
5750.79 1.2973e-14
5753.51 1.3111e-14
5756.23 1.3343e-14
5758.95 1.3074e-14
5761.67 1.2844e-14
5764.39 1.3028e-14
5767.11 1.3206e-14
5769.83 1.3179e-14
5772.55 1.294e-14
5775.27 1.3218e-14
5777.98 1.3366e-14
5780.7 1.3297e-14
5783.42 1.2984e-14
5786.14 1.2968e-14
5788.86 1.2813e-14
5791.58 1.2976e-14
5794.3 1.2993e-14
5797.02 1.2063e-14
5799.74 1.2703e-14
5802.46 1.2589e-14
5805.18 1.2912e-14
5807.9 1.2914e-14
5810.62 1.2719e-14
5813.34 1.3365e-14
5816.06 1.3237e-14
5818.78 1.3096e-14
5821.5 1.316e-14
5824.22 1.3268e-14
5826.94 1.3117e-14
5829.66 1.3379e-14
5832.38 1.3329e-14
5835.1 1.3286e-14
5837.82 1.3712e-14
5840.54 1.3268e-14
5843.26 1.3081e-14
5845.98 1.3246e-14
5848.7 1.3105e-14
5851.42 1.292e-14
5854.13 1.2862e-14
5856.85 1.2725e-14
5859.57 1.3042e-14
5862.29 1.2813e-14
5865.01 1.2495e-14
5867.73 1.2736e-14
5870.45 1.2185e-14
5873.17 1.2317e-14
5875.89 1.2798e-14
5878.61 1.2597e-14
5881.33 1.2635e-14
5884.05 1.2537e-14
5886.77 1.288e-14
5889.49 1.3001e-14
5892.21 1.266e-14
5894.93 1.2707e-14
5897.65 1.2062e-14
5900.37 1.1677e-14
5903.09 1.1162e-14
5905.81 1.0779e-14
5908.53 1.0521e-14
5911.25 1.1324e-14
5913.97 1.1667e-14
5916.69 1.1926e-14
5919.41 1.2187e-14
5922.13 1.2267e-14
5924.85 1.221e-14
5927.56 1.2518e-14
5930.28 1.2424e-14
5933.0 1.2662e-14
5935.72 1.2719e-14
5938.44 1.2993e-14
5941.16 1.2746e-14
5943.88 1.3009e-14
5946.6 1.2734e-14
5949.32 1.2775e-14
5952.04 1.3555e-14
5954.76 1.2742e-14
5957.48 1.2699e-14
5960.2 1.2698e-14
5962.92 1.2605e-14
5965.64 1.2896e-14
5968.36 1.2374e-14
5971.08 1.2725e-14
5973.8 1.2904e-14
5976.52 1.2939e-14
5979.24 1.2679e-14
5981.96 1.2628e-14
5984.68 1.3169e-14
5987.4 1.2566e-14
5990.12 1.2606e-14
5992.84 1.22e-14
5995.56 1.2338e-14
5998.28 1.254e-14
6001.0 1.267e-14
6003.71 1.2631e-14
6006.43 1.2216e-14
6009.15 1.3179e-14
6011.87 1.3122e-14
6014.59 1.2305e-14
6017.31 1.2574e-14
6020.03 1.2401e-14
6022.75 1.2259e-14
6025.47 1.2623e-14
6028.19 1.1931e-14
6030.91 1.2553e-14
6033.63 1.1712e-14
6036.35 1.2621e-14
6039.07 1.2061e-14
6041.79 1.2343e-14
6044.51 1.2655e-14
6047.23 1.2716e-14
6049.95 1.2716e-14
6052.67 1.2822e-14
6055.39 1.2629e-14
6058.11 1.2781e-14
6060.83 1.288e-14
6063.55 1.3192e-14
6066.27 1.2929e-14
6068.99 1.3199e-14
6071.71 1.2924e-14
6074.43 1.2364e-14
6077.14 1.249e-14
6079.86 1.2539e-14
6082.58 1.2982e-14
6085.3 1.3018e-14
6088.02 1.2699e-14
6090.74 1.2766e-14
6093.46 1.2343e-14
6096.18 1.2688e-14
6098.9 1.2547e-14
6101.62 1.2682e-14
6104.34 1.2288e-14
6107.06 1.217e-14
6109.78 1.2119e-14
6112.5 1.2365e-14
6115.22 1.2799e-14
6117.94 1.2746e-14
6120.66 1.2501e-14
6123.38 1.2906e-14
6126.1 1.276e-14
6128.82 1.2442e-14
6131.54 1.2718e-14
6134.26 1.2498e-14
6136.98 1.1893e-14
6139.7 1.1887e-14
6142.42 1.2195e-14
6145.14 1.2504e-14
6147.86 1.217e-14
6150.58 1.2274e-14
6153.29 1.2111e-14
6156.01 1.2536e-14
6158.73 1.2444e-14
6161.45 1.2377e-14
6164.17 1.2897e-14
6166.89 1.321e-14
6169.61 1.2543e-14
6172.33 1.191e-14
6175.05 1.1798e-14
6177.77 1.1865e-14
6180.49 1.2003e-14
6183.21 1.1631e-14
6185.93 1.2062e-14
6188.65 1.238e-14
6191.37 1.2185e-14
6194.09 1.2717e-14
6196.81 1.2326e-14
6199.53 1.202e-14
6202.25 1.2046e-14
6204.97 1.2368e-14
6207.69 1.2118e-14
6210.41 1.2358e-14
6213.13 1.2356e-14
6215.85 1.2492e-14
6218.57 1.2299e-14
6221.29 1.2701e-14
6224.01 1.2633e-14
6226.73 1.2045e-14
6229.44 1.219e-14
6232.16 1.2195e-14
6234.88 1.1589e-14
6237.6 1.1699e-14
6240.32 1.182e-14
6243.04 1.1971e-14
6245.76 1.177e-14
6248.48 1.1863e-14
6251.2 1.1959e-14
6253.92 1.1731e-14
6256.64 1.2203e-14
6259.36 1.1448e-14
6262.08 1.1501e-14
6264.8 1.1619e-14
6267.52 1.1502e-14
6270.24 1.1069e-14
6272.96 1.1858e-14
6275.68 1.1776e-14
6278.4 1.2195e-14
6281.12 1.2037e-14
6283.84 1.2147e-14
6286.56 1.1865e-14
6289.28 1.1726e-14
6292.0 1.2132e-14
6294.72 1.1656e-14
6297.44 1.2197e-14
6300.16 1.2235e-14
6302.87 1.2241e-14
6305.59 1.2001e-14
6308.31 1.2137e-14
6311.03 1.1473e-14
6313.75 1.2145e-14
6316.47 1.2136e-14
6319.19 1.2254e-14
6321.91 1.2171e-14
6324.63 1.2157e-14
6327.35 1.1621e-14
6330.07 1.2123e-14
6332.79 1.1627e-14
6335.51 1.1958e-14
6338.23 1.1717e-14
6340.95 1.2084e-14
6343.67 1.2458e-14
6346.39 1.2376e-14
6349.11 1.2228e-14
6351.83 1.177e-14
6354.55 1.2007e-14
6357.27 1.2048e-14
6359.99 1.2316e-14
6362.71 1.2251e-14
6365.43 1.2042e-14
6368.15 1.1764e-14
6370.87 1.2049e-14
6373.59 1.1736e-14
6376.31 1.1595e-14
6379.02 1.1953e-14
6381.74 1.1977e-14
6384.46 1.2152e-14
6387.18 1.2209e-14
6389.9 1.2476e-14
6392.62 1.2527e-14
6395.34 1.2376e-14
6398.06 1.2329e-14
6400.78 1.1902e-14
6403.5 1.1837e-14
6406.22 1.1793e-14
6408.94 1.1651e-14
6411.66 1.1754e-14
6414.38 1.1676e-14
6417.1 1.1896e-14
6419.82 1.215e-14
6422.54 1.1832e-14
6425.26 1.2215e-14
6427.98 1.241e-14
6430.7 1.2152e-14
6433.42 1.2253e-14
6436.14 1.1844e-14
6438.86 1.2027e-14
6441.58 1.2486e-14
6444.3 1.1894e-14
6447.02 1.1979e-14
6449.74 1.2142e-14
6452.46 1.232e-14
6455.17 1.2174e-14
6457.89 1.2519e-14
6460.61 1.2766e-14
6463.33 1.1925e-14
6466.05 1.1986e-14
6468.77 1.1923e-14
6471.49 1.223e-14
6474.21 1.2272e-14
6476.93 1.213e-14
6479.65 1.2772e-14
6482.37 1.2781e-14
6485.09 1.2182e-14
6487.81 1.2107e-14
6490.53 1.2414e-14
6493.25 1.1722e-14
6495.97 1.2191e-14
6498.69 1.1869e-14
6501.41 1.2378e-14
6504.13 1.1642e-14
6506.85 1.1841e-14
6509.57 1.1246e-14
6512.29 1.0899e-14
6515.01 1.1227e-14
6517.73 1.1749e-14
6520.45 1.1947e-14
6523.17 1.193e-14
6525.89 1.2307e-14
6528.6 1.2334e-14
6531.32 1.2111e-14
6534.04 1.1749e-14
6536.76 1.204e-14
6539.48 1.2131e-14
6542.2 1.2106e-14
6544.92 1.2245e-14
6547.64 1.2102e-14
6550.36 1.2055e-14
6553.08 1.2067e-14
6555.8 1.2442e-14
6558.52 1.2531e-14
6561.24 1.2614e-14
6563.96 1.2245e-14
6566.68 1.1928e-14
6569.4 1.1376e-14
6572.12 1.1174e-14
6574.84 1.1238e-14
6577.56 1.1077e-14
6580.28 1.1034e-14
6583.0 1.1262e-14
6585.72 1.1588e-14
6588.44 1.2007e-14
6591.16 1.2108e-14
6593.88 1.2752e-14
6596.6 1.3921e-14
6599.32 1.4349e-14
6602.04 1.3755e-14
6604.75 1.2642e-14
6607.47 1.1911e-14
6610.19 1.1427e-14
6612.91 1.1704e-14
6615.63 1.1935e-14
6618.35 1.1925e-14
6621.07 1.1985e-14
6623.79 1.2028e-14
6626.51 1.2302e-14
6629.23 1.265e-14
6631.95 1.1985e-14
6634.67 1.2568e-14
6637.39 1.1921e-14
6640.11 1.219e-14
6642.83 1.1766e-14
6645.55 1.2011e-14
6648.27 1.2076e-14
6650.99 1.2385e-14
6653.71 1.2146e-14
6656.43 1.2099e-14
6659.15 1.2033e-14
6661.87 1.2054e-14
6664.59 1.1576e-14
6667.31 1.1954e-14
6670.03 1.1753e-14
6672.75 1.2071e-14
6675.47 1.1532e-14
6678.18 1.1879e-14
6680.9 1.2267e-14
6683.62 1.1915e-14
6686.34 1.1916e-14
6689.06 1.132e-14
6691.78 1.1714e-14
6694.5 1.1657e-14
6697.22 1.2139e-14
6699.94 1.1819e-14
6702.66 1.2151e-14
6705.38 1.181e-14
6708.1 1.1606e-14
6710.82 1.1498e-14
6713.54 1.1163e-14
6716.26 1.1966e-14
6718.98 1.1996e-14
6721.7 1.1265e-14
6724.42 1.1941e-14
6727.14 1.1963e-14
6729.86 1.2069e-14
6732.58 1.163e-14
6735.3 1.157e-14
6738.02 1.1736e-14
6740.74 1.256e-14
6743.46 1.2408e-14
6746.18 1.2168e-14
6748.9 1.1941e-14
6751.62 1.2564e-14
6754.33 1.1731e-14
6763.61 1.2057e-14
6779.2 1.2004e-14
6794.83 1.2034e-14
6810.49 1.2064e-14
6826.19 1.1983e-14
6841.92 1.2013e-14
6857.7 1.196e-14
6873.51 1.1935e-14
6889.35 1.191e-14
6905.24 1.1967e-14
6921.15 1.197e-14
6937.11 1.2055e-14
6953.1 1.203e-14
6969.13 1.2032e-14
6985.19 1.1897e-14
7001.29 1.1954e-14
7017.44 1.2011e-14
7033.61 1.1986e-14
7049.83 1.2183e-14
7066.08 1.2102e-14
7082.37 1.2132e-14
7098.69 1.2107e-14
7115.06 1.2109e-14
7131.46 1.2112e-14
7147.9 1.2086e-14
7164.37 1.2117e-14
7180.89 1.1494e-14
7197.45 1.1313e-14
7214.04 1.1632e-14
7230.67 1.1905e-14
7247.34 1.1637e-14
7264.04 1.191e-14
7280.79 1.1615e-14
7297.57 1.1617e-14
7314.39 1.1918e-14
7331.25 1.2086e-14
7348.16 1.2257e-14
7365.1 1.2036e-14
7382.07 1.2206e-14
7399.09 1.2041e-14
7416.15 1.2099e-14
7433.24 1.2101e-14
7450.38 1.2132e-14
7467.56 1.2162e-14
7484.77 1.2221e-14
7502.03 1.2028e-14
7519.32 1.2059e-14
7536.65 1.2201e-14
7554.02 1.2203e-14
7571.44 1.215e-14
7588.89 1.2125e-14
7606.39 1.1988e-14
7623.92 1.2046e-14
7641.5 1.1966e-14
7659.11 1.1969e-14
7676.77 1.1328e-14
7694.47 1.1864e-14
7712.2 1.1785e-14
7729.98 1.1842e-14
7747.8 1.1872e-14
7765.66 1.1793e-14
7783.56 1.1607e-14
7801.51 1.1717e-14
7819.49 1.1773e-14
7837.51 1.1776e-14
7855.58 1.1915e-14
7873.69 1.1918e-14
7891.84 1.1893e-14
7910.04 1.1868e-14
7928.27 1.1789e-14
7946.55 1.1711e-14
7964.86 1.1713e-14
7983.23 1.177e-14
8001.63 1.1773e-14
8020.07 1.1721e-14
8038.56 1.1778e-14
8057.09 1.1699e-14
8075.67 1.1756e-14
8094.29 1.1597e-14
8112.94 1.1789e-14
8131.64 1.1764e-14
8150.39 1.1499e-14
8169.18 1.1009e-14
8188.01 1.1268e-14
8206.88 1.1142e-14
8225.81 1.1616e-14
8244.77 1.1512e-14
8263.77 1.1515e-14
8282.83 1.1307e-14
8301.92 1.1441e-14
8321.05 1.1497e-14
8340.24 1.1473e-14
8359.46 1.1662e-14
8378.73 1.1584e-14
8398.05 1.1271e-14
8417.41 1.1537e-14
8436.81 1.1539e-14
8456.26 1.1463e-14
8475.76 1.1204e-14
8495.29 1.1708e-14
8514.88 1.1497e-14
8534.51 1.158e-14
8554.18 1.0158e-14
8573.9 1.1585e-14
8593.66 1.1429e-14
8613.48 1.1379e-14
8633.33 1.1435e-14
8653.23 1.1306e-14
8673.18 9.3204e-15
8693.17 1.1106e-14
8713.21 1.1211e-14
8733.3 1.1422e-14
8753.43 1.1139e-14
8773.61 1.1219e-14
8793.83 1.1248e-14
8814.11 1.0919e-14
8834.43 1.0846e-14
8854.79 1.0975e-14
8875.21 1.0483e-14
8895.66 1.1031e-14
8916.17 1.1084e-14
8936.73 1.0686e-14
8957.33 1.0689e-14
8977.97 1.0472e-14
8998.67 9.6861e-15
9019.42 1.0145e-14
9040.21 1.1127e-14
9061.05 1.1415e-14
9081.94 1.0437e-14
9102.87 1.0585e-14
9123.85 1.0859e-14
9144.89 1.0231e-14
9165.97 1.0281e-14
9187.1 1.0547e-14
9208.28 1.0896e-14
9229.51 1.0798e-14
9250.78 1.0826e-14
9272.1 1.098e-14
9293.48 1.061e-14
9314.9 1.0588e-14
9336.38 1.0542e-14
9357.9 1.052e-14
9379.47 1.0475e-14
9401.09 1.0358e-14
9422.77 1.0408e-14
9444.49 1.0387e-14
9466.26 1.0366e-14
9488.08 1.0345e-14
9509.95 1.03e-14
9531.88 1.0232e-14
9553.85 9.8415e-15
9575.88 1.0167e-14
9597.95 1.0216e-14
9620.07 1.0172e-14
9642.25 1.0081e-14
9664.48 1.0061e-14
9686.76 1.0064e-14
9709.09 1.0043e-14
9731.47 9.9997e-15
9753.9 9.9794e-15
9776.38 9.9592e-15
9798.93 9.9161e-15
9821.51 9.896e-15
9844.15 9.8759e-15
9866.85 9.8332e-15
9889.59 9.8132e-15
9912.39 9.7708e-15
9935.24 9.751e-15
9958.14 9.7313e-15
9981.1 9.7116e-15
10027.17 9.5615e-15
10073.45 9.4139e-15
10119.96 9.4844e-15
10166.66 9.4244e-15
10213.59 9.3647e-15
10284.39 9.3081e-15
10308.1 9.268e-15
10499.74 9.0152e-15
10694.94 8.7177e-15
10893.77 8.383e-15
11096.31 8.23e-15
11302.6 7.9873e-15
11512.73 7.7696e-15
11699.8 7.5405e-15
11889.9 7.3181e-15
12110.95 7.1351e-15
12307.74 6.9567e-15
12507.73 6.7983e-15
12710.97 6.6283e-15
12887.78 6.4774e-15
13097.2 6.33e-15
13310.02 6.2001e-15
13495.18 6.073e-15
13714.46 5.9621e-15
13905.23 5.8398e-15
14098.67 5.7333e-15
14294.81 5.6286e-15
14493.67 5.5386e-15
14695.3 5.4501e-15
14899.73 5.3506e-15
15107.01 5.265e-15
15317.17 5.1928e-15
15494.54 5.157e-15
15710.09 5.0281e-15
15891.99 4.9249e-15
16113.07 4.8798e-15
16299.66 4.8239e-15
16488.4 4.6494e-15
16717.78 4.5436e-15
16911.35 4.3692e-15
17107.18 4.2697e-15
17305.27 4.0964e-15
17505.66 4.0216e-15
17708.35 3.8941e-15
17913.41 3.7792e-15
18120.84 3.6258e-15
18288.52 3.5514e-15
18500.28 3.4467e-15
18714.5 3.2916e-15
18887.68 3.2464e-15
19106.37 3.1579e-15
19283.17 3.0648e-15
19506.46 2.9336e-15
19686.94 2.8867e-15
19914.91 2.8016e-15
20099.19 2.7315e-15
20285.15 2.6449e-15
20520.05 2.5787e-15
20709.92 2.5027e-15
20901.54 2.4345e-15
21094.95 2.3681e-15
21290.14 2.3036e-15
21487.12 2.246e-15
21685.95 2.1548e-15
21886.59 2.1252e-15
22089.12 2.0673e-15
22293.52 2.011e-15
22499.78 1.9607e-15
22707.98 1.9072e-15
22918.08 1.8e-15
23076.95 1.7361e-15
23290.49 1.6196e-15
23505.98 1.5451e-15
23723.49 1.4901e-15
23887.92 1.4019e-15
24108.96 1.3409e-15
24276.06 1.2925e-15
24500.7 1.2176e-15
24727.38 1.1673e-15
24898.8 1.1e-15
25071.38 1.0578e-15
25205.21 8.8222e-16
25300.94 8.5056e-16
25396.57 8.8155e-16
25492.3 8.868e-16
25587.94 8.7989e-16
25683.67 9.1037e-16
25779.4 9.034e-16
25875.03 9.1518e-16
25970.76 9.1199e-16
26066.49 8.8361e-16
26162.13 9.0011e-16
26257.86 8.8966e-16
26353.49 9.0523e-16
26449.22 8.9974e-16
26544.95 8.7902e-16
26640.58 8.6951e-16
26736.32 8.591e-16
26831.95 8.5049e-16
26927.68 8.3911e-16
27023.41 8.3248e-16
27119.04 8.4204e-16
27214.77 8.1732e-16
27310.5 8.2983e-16
27406.14 8.0422e-16
27501.87 8.3732e-16
27597.6 7.8312e-16
27693.23 7.9412e-16
27788.97 7.9068e-16
27884.6 7.6747e-16
27980.33 7.4001e-16
28076.06 7.7155e-16
28171.69 7.4462e-16
28267.42 7.5431e-16
28363.05 7.1959e-16
28458.79 7.3566e-16
28554.52 7.3659e-16
28650.15 7.1742e-16
28745.88 7.1662e-16
28841.61 7.1636e-16
28937.24 6.8771e-16
29032.98 7.0051e-16
29128.61 6.973e-16
29224.34 6.8356e-16
29320.07 6.7237e-16
29415.7 6.8829e-16
29511.43 6.7018e-16
29607.16 6.5698e-16
29702.8 6.4979e-16
29798.53 6.5768e-16
29894.16 6.4863e-16
29989.89 6.3005e-16
30085.62 6.2386e-16
30181.26 6.0784e-16
30276.99 5.8854e-16
30372.72 5.8911e-16
30468.35 5.8172e-16
30564.08 5.854e-16
30659.71 5.8363e-16
30755.45 5.9077e-16
30851.18 5.7825e-16
30946.81 5.9056e-16
31042.54 5.7733e-16
31138.27 5.5394e-16
31233.91 5.633e-16
31329.63 5.8905e-16
31425.27 5.8312e-16
31521.0 5.6715e-16
31616.73 5.628e-16
31712.36 5.6805e-16
31808.1 5.4464e-16
31903.83 5.4864e-16
31999.46 5.4702e-16
32095.19 5.5344e-16
32190.82 5.4143e-16
32286.55 5.3376e-16
32382.28 5.5991e-16
32477.92 5.7099e-16
32573.65 5.7032e-16
32669.38 5.8858e-16
32765.01 5.7969e-16
32860.74 5.798e-16
32956.38 6.0214e-16
33052.1 5.9381e-16
33147.84 5.7061e-16
33243.47 5.5364e-16
33339.2 5.3292e-16
33434.93 5.2336e-16
33530.57 5.2401e-16
33626.3 4.8715e-16
33721.93 4.8049e-16
33817.66 5.02e-16
33913.39 4.8198e-16
34009.02 4.8199e-16
34104.75 4.8398e-16
34200.49 4.8129e-16
34296.12 4.7003e-16
34391.85 4.5905e-16
34487.48 4.6766e-16
34583.21 4.7611e-16
34678.94 4.7142e-16
34774.58 4.5572e-16
34870.31 4.1415e-16
34966.04 4.3202e-16
35061.67 4.2104e-16
35157.41 4.1633e-16
35253.04 3.9837e-16
35348.77 4.1719e-16
35444.5 4.0043e-16
35540.13 3.9991e-16
35635.86 4.0203e-16
35731.59 4.0586e-16
35827.22 3.7889e-16
35922.96 3.9167e-16
36018.59 3.9359e-16
36114.32 3.8545e-16
36210.05 3.815e-16
36305.68 3.758e-16
36401.42 3.7857e-16
36497.15 3.6258e-16
36592.78 3.6443e-16
36688.51 3.6462e-16
36784.14 3.6895e-16
36879.87 3.6783e-16
36975.61 3.5029e-16
37071.23 3.4546e-16
37166.97 3.4764e-16
37262.7 3.5185e-16
37358.33 3.4675e-16
37454.06 3.4944e-16
37549.69 3.4528e-16
37645.43 3.4709e-16
37741.16 3.51e-16
37836.79 3.4417e-16
37932.52 3.368e-16
38028.25 3.4006e-16
38123.88 3.3677e-16
38219.62 3.3228e-16
38315.25 3.2978e-16
38410.98 3.1077e-16
38506.71 3.1982e-16
38602.34 3.0276e-16
38698.07 3.102e-16
38793.8 3.1139e-16
38889.44 3.1327e-16
38985.17 3.0578e-16
39080.8 3.2385e-16
39176.53 2.9336e-16
39272.26 2.9585e-16
39367.9 3.0959e-16
39463.63 3.0186e-16
39559.36 2.9341e-16
39654.99 2.9462e-16
39750.72 2.942e-16
39846.35 2.8991e-16
39942.08 2.9745e-16
40037.82 3.0101e-16
40133.45 2.9326e-16
40229.18 2.8097e-16
40324.91 2.8584e-16
40420.55 2.7729e-16
40516.27 2.6966e-16
40611.91 2.7582e-16
40707.64 2.6812e-16
40803.37 2.5866e-16
40899.01 2.5597e-16
40994.73 2.4452e-16
41090.47 2.5204e-16
41186.1 2.527e-16
41281.83 2.5307e-16
41377.46 2.4205e-16
41473.2 2.2833e-16
41568.92 2.2525e-16
41664.56 2.4404e-16
41760.29 2.3124e-16
41856.02 2.4027e-16
41951.65 2.3727e-16
42047.38 2.4011e-16
42143.02 2.2903e-16
42238.75 2.2114e-16
42334.48 2.0846e-16
42430.11 2.2822e-16
42525.84 2.1455e-16
42621.58 2.0516e-16
42717.2 1.9705e-16
42812.94 1.9644e-16
42908.57 1.9344e-16
43004.3 2.0227e-16
43100.03 2.0871e-16
43195.67 2.0433e-16
43291.39 2.024e-16
43387.13 1.9961e-16
43482.76 1.9484e-16
43578.49 1.8835e-16
43674.13 1.9742e-16
43769.85 1.9639e-16
43865.59 2.0234e-16
43961.22 1.8026e-16
44056.95 1.7507e-16
44152.68 1.7685e-16
44248.31 1.7211e-16
44344.04 1.7729e-16
44439.67 1.6475e-16
44535.41 1.5857e-16
44631.14 1.6513e-16
44726.77 1.7085e-16
44822.5 1.6295e-16
44918.23 1.597e-16
45013.86 1.5344e-16
45109.6 1.5845e-16
45205.23 1.512e-16
45300.96 1.7241e-16
45396.69 1.4944e-16
45492.32 1.5954e-16
45588.06 1.439e-16
45683.79 1.4849e-16
45779.41 1.393e-16
45875.15 1.3958e-16
45970.78 1.3458e-16
46066.51 1.3132e-16
46162.24 1.3926e-16
46257.88 1.3416e-16
46353.61 1.3836e-16
46449.34 1.3096e-16
46544.97 1.3087e-16
46640.7 1.504e-16
46736.34 1.3987e-16
46832.07 1.7141e-16
46927.8 1.4839e-16
47023.43 1.6487e-16
47119.16 1.5801e-16
47214.89 1.4715e-16
47310.53 1.3971e-16
47406.26 1.5192e-16
47501.89 1.4087e-16
47597.62 1.3389e-16
47693.35 1.3771e-16
47788.98 1.3676e-16
47884.72 1.4909e-16
47980.45 1.6054e-16
48076.08 1.4551e-16
48171.81 1.3943e-16
48267.44 1.2343e-16
48363.17 1.3351e-16
48458.91 1.383e-16
48554.53 1.3003e-16
48650.27 1.4749e-16
48746.0 1.2874e-16
48841.63 1.2487e-16
48938.35 1.3331e-16
49427.74 1.2478e-16
49922.01 1.1616e-16
50421.23 1.0746e-16
50925.44 9.8666e-17
51434.7 8.9787e-17
51596.48 8.6966e-17
51895.54 8.6106e-17
52194.6 9.822e-17
52493.66 1.1041e-16
52792.72 1.05e-16
53091.88 1.0775e-16
53390.95 1.0954e-16
53690.0 1.0098e-16
53989.06 9.8153e-17
54288.13 9.1144e-17
54587.29 9.6702e-17
54886.35 1.0935e-16
55185.41 1.2573e-16
55484.47 1.1585e-16
55783.53 1.1564e-16
56082.69 1.2219e-16
56381.75 1.2517e-16
56680.81 1.3614e-16
56979.88 1.3168e-16
57278.94 1.252e-16
57578.1 1.1948e-16
57877.16 1.1032e-16
58176.22 1.0108e-16
58475.28 1.0096e-16
58774.34 1.0246e-16
59073.5 1.0087e-16
59372.56 1.0092e-16
59671.63 1.1571e-16
59970.69 1.2872e-16
60269.75 1.4289e-16
60568.91 1.4288e-16
60867.97 1.4558e-16
61167.03 1.6962e-16
61466.09 2.1146e-16
61765.15 2.8595e-16
62064.32 3.3264e-16
62363.38 3.364e-16
62662.44 3.0148e-16
62961.5 2.5592e-16
63260.56 2.2148e-16
63559.72 1.9186e-16
63858.78 1.7656e-16
64157.84 1.6126e-16
64456.9 1.5133e-16
64755.97 1.4038e-16
65055.12 1.343e-16
65354.18 1.3529e-16
65653.24 1.3184e-16
65952.31 1.3735e-16
66251.37 1.4072e-16
66550.53 1.4064e-16
66849.59 1.3842e-16
67148.66 1.4059e-16
67447.71 1.3594e-16
67746.78 1.3665e-16
68045.94 1.3764e-16
68345.0 1.3352e-16
68644.06 1.3838e-16
68943.12 1.6031e-16
69242.18 1.8001e-16
69541.34 1.5976e-16
69840.4 1.6229e-16
70139.46 1.6053e-16
70438.52 1.52e-16
70737.58 1.6785e-16
71036.74 1.7982e-16
71335.81 1.8301e-16
71634.87 1.8114e-16
71933.93 1.8329e-16
72232.99 1.8951e-16
72532.15 1.9516e-16
72831.21 1.9788e-16
73130.28 2.0765e-16
73429.34 2.1699e-16
73728.4 2.3827e-16
74027.56 2.6152e-16
74326.62 2.8001e-16
74625.68 3.0811e-16
74924.74 3.2229e-16
75522.86 3.7321e-16
76121.08 3.9636e-16
76719.2 3.8332e-16
77317.33 3.7282e-16
77915.55 3.6793e-16
78513.68 3.5339e-16
79111.9 3.3198e-16
79710.02 2.9916e-16
80308.14 2.7295e-16
80906.36 2.3785e-16
81504.48 2.1004e-16
82102.61 1.9573e-16
82700.82 1.8618e-16
83298.95 1.8024e-16
83897.07 1.7169e-16
84495.3 1.6659e-16
85093.42 1.6449e-16
85691.64 1.6349e-16
86289.76 1.5144e-16
86887.89 1.3216e-16
87486.11 1.0664e-16
88084.23 8.5009e-17
88682.36 6.7297e-17
89280.57 5.6517e-17
89878.7 4.9576e-17
90476.82 4.5369e-17
91075.04 4.1121e-17
91673.16 3.9166e-17
92271.38 3.7011e-17
92869.5 3.5229e-17
93467.63 3.3318e-17
94065.84 3.2043e-17
94663.97 3.0524e-17
95262.1 3.0794e-17
95860.32 3.1493e-17
96458.43 4.6472e-17
97056.55 4.3785e-17
97654.78 3.0522e-17
98252.91 2.5764e-17
98851.13 2.4418e-17
99449.25 2.5369e-17
100047.38 2.5595e-17
100645.6 2.5012e-17
101243.72 2.4732e-17
101841.84 2.3255e-17
102440.05 2.2921e-17
103038.18 2.4362e-17
103636.3 2.4415e-17
104234.52 2.591e-17
104832.65 2.7674e-17
105430.88 3.0934e-17
106028.99 3.2265e-17
106627.11 3.2211e-17
107225.34 3.4202e-17
107823.46 3.406e-17
108421.58 3.3098e-17
109019.8 3.488e-17
109617.93 4.1435e-17
110216.06 4.9908e-17
110814.27 5.6455e-17
111412.4 7.8532e-17
112010.62 1.2986e-16
112608.73 1.6551e-16
113206.86 1.4699e-16
113805.08 1.1877e-16
114403.2 1.0075e-16
115001.33 8.4823e-17
115599.54 7.7722e-17
116197.67 6.9385e-17
116795.79 6.5681e-17
117394.01 6.4984e-17
117992.13 6.6782e-17
118590.36 7.3062e-17
119188.48 7.801e-17
119786.6 8.2508e-17
120384.83 8.4986e-17
120982.95 8.6374e-17
121581.08 8.8488e-17
122179.29 9.4883e-17
122777.41 1.096e-16
123375.54 1.1512e-16
123973.75 1.1483e-16
124571.88 1.1843e-16
125170.1 1.2623e-16
125768.22 1.3454e-16
126366.35 1.4095e-16
126964.57 1.4594e-16
127562.69 1.5293e-16
128160.81 1.5602e-16
128759.04 1.4581e-16
129357.15 1.2598e-16
129955.27 1.2083e-16
130553.5 1.1875e-16
131151.62 1.1948e-16
131749.74 1.1877e-16
132347.97 1.1816e-16
132946.09 1.1817e-16
133544.31 1.1716e-16
134142.43 1.1631e-16
134740.55 1.178e-16
135338.78 1.1971e-16
135936.9 1.1916e-16
136535.02 1.1544e-16
137133.25 1.1167e-16
137731.37 1.1106e-16
138329.49 1.1498e-16
138927.71 1.1594e-16
139525.83 1.1788e-16
140124.06 1.178e-16
140722.18 1.1825e-16
141320.3 1.1667e-16
141918.53 1.1421e-16
142516.65 1.121e-16
143114.77 1.0888e-16
144164.64 1.2486e-16
145002.1 1.261e-16
145839.55 1.273e-16
146677.0 1.2767e-16
147514.35 1.2973e-16
148351.8 1.2927e-16
149189.25 1.2802e-16
150026.6 1.2849e-16
150864.05 1.2729e-16
151701.5 1.2419e-16
152538.85 1.2153e-16
153376.3 1.1893e-16
154213.76 1.1758e-16
155051.12 1.159e-16
155888.57 1.161e-16
156726.01 1.1104e-16
157563.35 1.0781e-16
158400.82 1.0729e-16
159238.26 1.0462e-16
160075.71 1.0103e-16
160913.07 1.021e-16
161750.53 9.5089e-17
162587.96 9.6367e-17
163425.33 1.0033e-16
164262.76 1.0449e-16
165100.21 1.0505e-16
165937.58 1.0064e-16
166775.01 9.9557e-17
167612.48 1.0093e-16
168449.82 1.0087e-16
169287.28 1.0146e-16
170124.73 1.1477e-16
170962.07 1.2628e-16
171799.53 1.0415e-16
172636.98 1.0234e-16
173474.43 1.0031e-16
174311.78 9.9552e-17
175149.24 9.7512e-17
175986.68 9.4933e-17
176824.05 9.6083e-17
177661.49 9.5425e-17
178498.94 9.7224e-17
179336.3 9.6789e-17
180173.73 9.7983e-17
181011.19 9.8451e-17
181848.55 1.0206e-16
182685.99 1.034e-16
183523.44 1.0574e-16
184360.78 1.0583e-16
185198.24 1.0696e-16
186035.71 1.1041e-16
186873.15 1.1415e-16
187710.49 1.1636e-16
188547.96 1.1991e-16
189385.39 1.254e-16
190222.76 1.2639e-16
191060.21 1.3118e-16
191897.65 1.3152e-16
192735.01 1.3656e-16
193572.47 1.4082e-16
194409.9 1.461e-16
195247.26 1.4705e-16
196084.71 1.5244e-16
196922.15 1.5778e-16
197759.53 1.5705e-16
198596.96 1.6007e-16
199434.42 1.6941e-16
200271.87 1.7683e-16
201109.21 1.8273e-16
201946.67 1.8877e-16
203621.47 2.0366e-16
205296.37 2.1145e-16
206971.19 2.2237e-16
208645.97 2.3413e-16
210320.87 2.4415e-16
211995.67 2.5695e-16
213670.58 2.6644e-16
215345.38 2.7769e-16
217020.19 2.8928e-16
218695.1 2.9853e-16
220369.9 3.1285e-16
222044.69 3.2278e-16
223719.58 3.3875e-16
225394.4 3.4713e-16
227069.3 3.5468e-16
228744.1 3.7254e-16
230418.9 3.85e-16
232093.81 4.0146e-16
233768.61 4.1718e-16
235443.42 4.2511e-16
237118.3 4.4334e-16
238793.11 4.6262e-16
240468.01 4.8078e-16
242142.81 4.8987e-16
243817.61 5.1096e-16
245492.52 5.3398e-16
247167.33 5.47e-16
248842.13 5.6186e-16
250517.04 5.8039e-16
252191.84 5.9991e-16
253866.72 6.1516e-16
255541.53 6.2629e-16
257216.33 6.4646e-16
258891.24 6.6129e-16
260566.04 6.803e-16
262240.84 6.9413e-16
263915.74 7.1079e-16
265590.54 7.3063e-16
267265.44 7.485e-16
268940.24 7.6351e-16
270615.07 7.8217e-16
272289.97 8.0199e-16
273964.74 8.1306e-16
275639.54 8.3747e-16
277314.47 8.5096e-16
278989.27 8.748e-16
280664.17 8.8352e-16
282338.97 8.9963e-16
284013.77 9.1466e-16
285688.67 9.3326e-16
287363.47 9.5586e-16
289038.27 9.7138e-16
290713.17 9.917e-16
292387.97 1.0053e-15
294062.86 1.0206e-15
295737.7 1.0442e-15
297412.5 1.059e-15
299087.39 1.0771e-15
300762.2 1.0879e-15
302437.0 1.0989e-15
304111.89 1.1192e-15
305786.7 1.1381e-15
307461.59 1.1453e-15
309136.4 1.1531e-15
310811.2 1.1669e-15
312486.09 1.2018e-15
314160.93 1.1977e-15
315835.73 1.1984e-15
317510.62 1.2076e-15
319185.4 1.2273e-15
320860.32 1.251e-15
322535.12 1.2661e-15
324209.93 1.2551e-15
325884.82 1.267e-15
327559.62 1.2935e-15
329234.43 1.3081e-15
330909.35 1.3319e-15
332584.16 1.3042e-15
334259.02 1.356e-15
335933.82 1.4011e-15
337608.66 1.3531e-15
339283.52 1.3604e-15
340958.32 1.3621e-15
342633.13 1.3823e-15
344308.05 1.4165e-15
345982.82 1.4125e-15
