# col1 col2
# An Atlas of Galaxy Spectral Energy Distributions from the Ultraviolet to the Mid-Infrared
# Brown et al. (2014)
# http://dx.doi.org/10.5072/03/529D3551F0117
# 
# Column 1 : Restframe Wavelength (Angstrom)
# Column 2 : Flux per unit wavelength (ergs/s/cm^2/Angstrom)
# Column 3 : Observed wavelength (Angstrom)
# Column 4 : Source (0 = model, 1 = Optical Spectrum, 2 = Akari, 3 = Spitzer IRS)
# 
100.06 1.3588e-26
101.92 2.2037e-26
104.06 3.2371e-26
105.99 4.8212e-26
107.96 7.2804e-26
109.97 1.2251e-25
114.1 2.4108e-25
118.11 4.3869e-25
121.14 2.0284e-24
125.1 3.3278e-24
127.14 4.1035e-24
128.02 4.6361e-24
131.0 6.1966e-24
131.91 7.8011e-24
134.05 9.3359e-24
136.86 1.4098e-23
140.05 1.8162e-23
142.98 6.0139e-23
146.98 1.9371e-22
151.1 2.5244e-22
154.98 3.3049e-22
158.95 4.3267e-22
161.91 5.2138e-22
166.06 6.7477e-22
169.93 8.4558e-22
173.09 1.0027e-21
177.12 1.2392e-21
180.0 1.4426e-21
182.08 1.5965e-21
185.9 1.9371e-21
191.1 2.4443e-21
194.21 2.8194e-21
197.82 3.3355e-21
201.96 3.9642e-21
204.77 4.4787e-21
210.02 5.2018e-21
215.91 6.8101e-21
219.92 7.9096e-21
222.98 8.6927e-21
227.13 1.005e-20
229.76 1.6755e-20
234.03 3.0002e-20
240.03 4.238e-20
246.19 4.5306e-20
251.92 5.4345e-20
257.2 5.0484e-20
260.18 6.154e-20
263.8 6.9528e-20
268.7 7.5711e-20
273.7 8.2065e-20
278.79 8.8952e-20
283.97 9.6196e-20
289.91 1.0027e-19
295.99 1.1096e-19
300.79 1.1753e-19
307.8 1.3066e-19
317.88 1.5106e-19
328.3 1.6949e-19
338.27 1.8757e-19
347.75 2.0566e-19
356.67 2.2344e-19
365.82 2.4387e-19
375.21 2.6131e-19
384.83 2.7237e-19
394.7 3.021e-19
404.83 3.2671e-19
414.26 3.4368e-19
421.96 3.5576e-19
429.8 3.7081e-19
440.83 3.9551e-19
451.1 4.1225e-19
459.48 4.2575e-19
470.19 4.4479e-19
480.03 4.679e-19
490.08 4.766e-19
500.35 5.0484e-19
506.14 5.2258e-19
512.0 7.5711e-19
520.32 8.0197e-19
529.99 8.5341e-19
539.85 8.5932e-19
549.88 1.1224e-18
560.11 1.3218e-18
570.52 1.5316e-18
579.79 1.5176e-18
590.57 1.9149e-18
600.16 2.0852e-18
609.92 2.4669e-18
619.83 2.9118e-18
629.9 3.2746e-18
640.13 3.3741e-18
650.53 4.0009e-18
658.07 4.4684e-18
665.69 4.777e-18
674.95 4.8996e-18
684.34 5.0252e-18
695.46 6.8101e-18
705.13 6.7633e-18
716.59 8.2444e-18
726.56 8.8543e-18
734.97 9.444e-18
745.19 1.1121e-17
755.56 1.2279e-17
764.31 1.3402e-17
774.94 1.5037e-17
785.72 1.6678e-17
794.82 1.783e-17
805.88 1.9061e-17
815.21 2.0237e-17
824.65 2.2864e-17
834.2 1.8628e-17
845.8 2.5012e-17
855.6 2.6312e-17
865.51 2.9051e-17
875.53 3.2e-17
885.67 3.5905e-17
895.92 3.874e-17
904.21 3.8829e-17
914.68 6.6398e-17
925.27 5.3971e-16
935.99 1.2251e-15
944.65 2.4443e-15
955.59 3.6573e-15
964.43 3.9188e-15
975.6 5.4345e-16
984.62 2.9591e-15
996.02 3.4927e-15
1005.24 5.7432e-15
1014.54 5.783e-15
1023.93 2.5478e-15
1035.79 3.7858e-15
1045.37 8.1876e-15
1055.04 8.1312e-15
1064.8 6.0556e-15
1074.66 7.6235e-15
1084.6 5.6906e-15
1094.64 8.3206e-15
1104.76 7.9645e-15
1114.99 7.4844e-15
1125.3 6.6246e-15
1135.72 9.1866e-15
1146.22 8.2824e-15
1154.17 9.1024e-15
1164.85 9.444e-15
1175.63 6.0835e-15
1183.78 9.4223e-15
1194.73 6.0139e-15
1205.78 3.9642e-15
1214.14 3.1344e-15
1225.38 6.7013e-15
1233.87 1.0744e-14
1245.29 1.178e-14
1253.92 1.1045e-14
1265.52 9.4223e-15
1274.29 1.2565e-14
1286.09 1.3218e-14
1295.0 9.6196e-15
1303.98 9.821e-15
1316.04 1.3006e-14
1325.16 1.2251e-14
1334.35 1.0523e-14
1343.6 1.3279e-14
1356.03 1.2887e-14
1365.43 1.125e-14
1374.9 1.1972e-14
1384.43 1.2194e-14
1394.02 1.026e-14
1403.69 1.0843e-14
1413.42 1.1224e-14
1426.49 1.1699e-14
1436.38 1.178e-14
1443.01 1.2536e-14
1446.34 1.271e-14
1456.36 1.2307e-14
1466.46 1.1224e-14
1476.62 1.1407e-14
1483.44 1.1672e-14
1493.72 1.1917e-14
1504.08 1.1045e-14
1511.02 9.6418e-15
1517.99 1.0499e-14
1525.0 1.0308e-14
1535.57 8.753e-15
1546.21 9.6196e-15
1553.35 9.2078e-15
1564.12 9.5534e-15
1574.96 1.0237e-14
1585.88 1.0868e-14
1593.2 1.1019e-14
1604.24 1.1019e-14
1615.36 1.1224e-14
1626.56 1.0621e-14
1634.07 1.1512e-14
1645.39 1.1672e-14
1656.8 1.0893e-14
1664.45 1.1972e-14
1672.13 1.0868e-14
1675.98 1.1999e-14
1683.72 1.2594e-14
1695.39 1.1835e-14
1703.22 1.138e-14
1715.02 1.0572e-14
1726.91 1.0572e-14
1734.88 1.1407e-14
1746.91 1.1147e-14
1754.97 1.1944e-14
1763.07 1.1045e-14
1775.29 1.1121e-14
1783.49 1.1512e-14
1795.85 1.2336e-14
1804.14 1.245e-14
1816.64 1.1096e-14
1825.03 1.1645e-14
1833.45 1.1147e-14
1846.16 1.019e-14
1854.68 1.0004e-14
1863.24 1.0403e-14
1876.16 1.1699e-14
1884.82 1.0499e-14
1893.52 9.9119e-15
1906.64 1.0918e-14
1915.44 1.0213e-14
1924.29 1.005e-14
1933.17 1.0719e-14
1946.57 1.1019e-14
1955.55 1.0143e-14
1969.11 1.1407e-14
1978.2 1.1889e-14
1982.76 1.1096e-14
1996.5 1.0818e-14
2005.72 1.1407e-14
2014.98 1.0944e-14
2024.28 1.1726e-14
2033.62 1.0793e-14
2043.01 1.1302e-14
2057.17 1.0793e-14
2066.66 1.0918e-14
2076.2 1.178e-14
2085.79 1.1486e-14
2095.41 1.0793e-14
2105.09 1.107e-14
2114.8 1.1224e-14
2124.56 1.1433e-14
2134.37 1.0793e-14
2144.22 1.0843e-14
2154.12 1.1407e-14
2164.06 1.1173e-14
2174.05 1.1096e-14
2184.09 1.0769e-14
2194.17 1.1302e-14
2204.3 1.107e-14
2214.47 1.0645e-14
2224.69 1.026e-14
2234.96 1.0843e-14
2245.28 1.0523e-14
2255.64 1.0096e-14
2266.05 1.0451e-14
2276.51 1.067e-14
2287.02 1.0893e-14
2297.57 1.0308e-14
2302.87 1.0308e-14
2313.5 9.8213e-15
2324.18 7.5888e-15
2334.91 9.2508e-15
2345.69 9.1872e-15
2356.51 9.6425e-15
2367.39 9.1032e-15
2372.85 9.2512e-15
2383.8 8.8349e-15
2394.8 9.3585e-15
2405.86 8.9787e-15
2416.96 9.1879e-15
2422.53 9.5328e-15
2433.72 9.1459e-15
2444.95 9.6434e-15
2456.23 9.5331e-15
2467.57 9.4894e-15
2473.26 9.1885e-15
2484.68 9.5115e-15
2496.14 8.836e-15
2507.67 9.7109e-15
2513.45 8.9179e-15
2519.24 9.3168e-15
2525.05 8.9386e-15
2536.7 9.0422e-15
2542.55 8.7958e-15
2554.29 9.2743e-15
2566.08 9.1262e-15
2577.92 9.5784e-15
2583.86 9.4907e-15
2595.79 9.4472e-15
2607.77 9.1687e-15
2613.78 9.1056e-15
2625.85 9.3179e-15
2637.97 9.4694e-15
2644.05 9.9386e-15
2656.26 1.0031e-14
2662.38 9.3397e-15
2674.67 9.7127e-15
2687.01 9.6238e-15
2693.21 9.34e-15
2705.64 9.4701e-15
2718.13 9.1909e-15
2724.39 9.2122e-15
2736.97 9.5361e-15
2743.28 8.6771e-15
2755.94 8.7575e-15
2762.29 8.9615e-15
2775.04 9.2766e-15
2787.85 9.0864e-15
2794.28 7.9689e-15
2807.18 8.4024e-15
2813.65 9.2343e-15
2826.64 9.3845e-15
2833.15 8.9829e-15
2846.23 8.9006e-15
2852.79 8.7988e-15
2865.96 9.2775e-15
2872.56 9.1925e-15
2885.82 9.1715e-15
2892.48 9.1084e-15
2912.53 9.516e-15
2932.71 9.2996e-15
2953.04 9.1511e-15
2966.67 9.2359e-15
2987.24 9.1937e-15
3007.94 9.2363e-15
3028.79 9.2365e-15
3049.79 9.1731e-15
3070.93 9.1523e-15
3092.22 9.1314e-15
3106.49 9.0896e-15
3128.02 8.9858e-15
3149.7 8.986e-15
3171.54 8.9038e-15
3193.52 8.6216e-15
3208.26 8.782e-15
3230.5 8.5626e-15
3252.89 8.7421e-15
3267.91 8.8435e-15
3290.56 8.7626e-15
3313.37 8.7427e-15
3321.01 8.8033e-15
3328.66 8.9054e-15
3336.34 8.9465e-15
3344.03 8.5439e-15
3351.74 8.8239e-15
3359.46 8.5244e-15
3367.21 8.5836e-15
3374.97 8.2162e-15
3382.75 8.3306e-15
3390.55 8.7434e-15
3398.36 8.8041e-15
3406.2 8.4662e-15
3414.05 8.5643e-15
3421.92 8.7437e-15
3429.81 8.7036e-15
3437.71 8.8045e-15
3445.64 8.2548e-15
3453.58 8.744e-15
3461.54 8.255e-15
3469.52 8.3892e-15
3477.52 8.2172e-15
3485.54 8.3124e-15
3493.57 8.3894e-15
3501.63 8.4088e-15
3509.7 8.2364e-15
3517.79 8.1422e-15
3525.9 8.3128e-15
3534.03 8.5065e-15
3542.17 8.6847e-15
3550.34 8.7449e-15
3558.52 8.5263e-15
3566.73 8.6649e-15
3574.95 8.124e-15
3583.19 7.9026e-15
3591.45 7.7051e-15
3599.73 8.2943e-15
3608.03 8.1243e-15
3616.34 8.2184e-15
3624.68 8.4487e-15
3633.04 8.8674e-15
3641.41 8.606e-15
3649.8 8.3908e-15
3658.22 8.7661e-15
3666.65 8.6659e-15
3674.51 1.1047e-14
3677.25 8.6583e-15
3679.99 7.369e-15
3682.73 1.0632e-14
3685.47 8.5973e-15
3688.21 8.3528e-15
3690.95 8.9504e-15
3693.68 7.4884e-15
3696.42 8.9471e-15
3699.16 8.8653e-15
3701.9 7.8172e-15
3704.64 6.8105e-15
3707.38 6.6895e-15
3710.12 7.8751e-15
3712.86 8.4862e-15
3715.6 7.5359e-15
3718.34 1.1911e-14
3721.08 2.2486e-14
3723.81 4.2562e-14
3726.55 6.902e-14
3729.29 7.3567e-14
3732.03 5.7305e-14
3734.77 2.9894e-14
3737.51 1.265e-14
3740.25 1.1032e-14
3742.99 6.3206e-15
3745.73 7.3645e-15
3748.47 8.4136e-15
3751.21 7.7184e-15
3753.94 7.862e-15
3756.68 7.2785e-15
3759.42 9.4645e-15
3762.16 9.2871e-15
3764.9 8.6593e-15
3767.64 7.6115e-15
3770.38 7.5802e-15
3773.12 8.051e-15
3775.86 9.5496e-15
3778.6 8.4298e-15
3781.33 1.0318e-14
3784.07 1.0371e-14
3786.81 9.0645e-15
3789.55 7.6147e-15
3792.29 7.5017e-15
3795.03 8.7963e-15
3797.77 8.5777e-15
3800.51 8.5288e-15
3803.25 7.9321e-15
3805.99 9.9022e-15
3808.73 1.019e-14
3811.46 9.5258e-15
3814.2 9.1879e-15
3816.94 9.4126e-15
3819.68 9.1855e-15
3822.42 9.2492e-15
3825.16 8.5986e-15
3827.9 7.9293e-15
3830.64 7.7256e-15
3833.38 8.8196e-15
3836.12 9.4167e-15
3838.86 9.1636e-15
3841.59 8.7196e-15
3844.33 9.3572e-15
3847.07 8.0992e-15
3849.81 9.1239e-15
3852.55 1.0573e-14
3855.29 9.175e-15
3858.03 1.0072e-14
3860.77 1.0813e-14
3863.51 1.1462e-14
3866.25 1.3149e-14
3868.98 1.4617e-14
3871.72 1.328e-14
3874.46 1.1291e-14
3877.2 1.0789e-14
3879.94 1.0196e-14
3882.68 1.0362e-14
3885.42 1.1686e-14
3888.16 1.2244e-14
3890.9 1.2144e-14
3893.64 1.016e-14
3896.38 9.1158e-15
3899.11 8.6804e-15
3901.85 9.2717e-15
3904.59 9.5169e-15
3907.33 1.0085e-14
3910.07 9.8579e-15
3912.81 9.3031e-15
3915.55 9.7636e-15
3918.29 8.5488e-15
3921.03 9.3731e-15
3923.77 9.9616e-15
3926.51 9.8911e-15
3929.24 8.1845e-15
3931.98 8.0522e-15
3934.72 8.1575e-15
3937.46 8.574e-15
3940.2 9.3512e-15
3942.94 9.6587e-15
3945.68 1.0074e-14
3948.42 1.0579e-14
3951.16 9.5499e-15
3953.9 9.9129e-15
3956.64 1.0135e-14
3959.37 9.9776e-15
3962.11 8.1577e-15
3964.85 8.4788e-15
3967.59 9.9427e-15
3970.33 9.9375e-15
3973.07 1.0423e-14
3975.81 8.7873e-15
3978.55 8.7828e-15
3981.29 9.505e-15
3984.03 9.7057e-15
3986.76 1.0217e-14
3989.5 1.0327e-14
3992.24 1.0252e-14
3994.98 9.6596e-15
3997.72 9.3413e-15
4000.46 1.0779e-14
4003.2 1.007e-14
4005.94 1.0416e-14
4008.68 1.1718e-14
4011.42 1.0823e-14
4014.16 1.0173e-14
4016.89 1.1738e-14
4019.63 1.2166e-14
4022.37 1.2022e-14
4025.11 1.2343e-14
4027.85 1.2266e-14
4030.59 1.1542e-14
4033.33 1.1666e-14
4036.07 1.0644e-14
4038.81 1.0077e-14
4041.55 1.0797e-14
4044.29 1.2151e-14
4047.02 1.1812e-14
4049.76 1.0993e-14
4052.5 1.1083e-14
4055.24 1.1147e-14
4057.98 1.0764e-14
4060.72 1.1092e-14
4063.46 1.0318e-14
4066.2 1.1321e-14
4068.94 1.1489e-14
4071.68 1.2198e-14
4074.41 1.2036e-14
4077.15 1.1398e-14
4079.89 1.0703e-14
4082.63 1.0639e-14
4085.37 1.0108e-14
4088.11 1.0603e-14
4090.85 1.0219e-14
4093.59 9.9526e-15
4096.33 1.0312e-14
4099.07 1.2341e-14
4101.81 1.3835e-14
4104.54 1.4145e-14
4107.28 1.2964e-14
4110.02 1.1947e-14
4112.76 1.0393e-14
4115.5 9.6058e-15
4118.24 9.5961e-15
4120.98 1.0273e-14
4123.72 1.054e-14
4126.46 1.0488e-14
4129.2 1.0483e-14
4131.94 1.1451e-14
4134.67 1.0999e-14
4137.41 1.0775e-14
4140.15 1.0192e-14
4142.89 1.051e-14
4145.63 1.04e-14
4148.37 1.0426e-14
4151.11 1.1347e-14
4153.85 1.1106e-14
4156.59 9.9467e-15
4159.33 9.6142e-15
4162.07 1.1179e-14
4164.8 1.0944e-14
4167.54 1.1092e-14
4170.28 1.0441e-14
4173.02 1.0191e-14
4175.76 1.0751e-14
4178.5 1.0306e-14
4181.24 1.0724e-14
4183.98 1.1255e-14
4186.72 1.1717e-14
4189.46 1.1583e-14
4192.19 1.0647e-14
4194.93 1.1135e-14
4197.67 1.0153e-14
4200.41 9.5522e-15
4203.15 1.0417e-14
4205.89 1.1642e-14
4208.63 1.044e-14
4211.37 1.1212e-14
4214.11 9.815e-15
4216.85 1.058e-14
4219.59 1.1297e-14
4222.32 1.0234e-14
4225.06 1.0608e-14
4227.8 9.7719e-15
4230.54 1.0251e-14
4233.28 1.0186e-14
4236.02 1.1466e-14
4238.76 1.117e-14
4241.5 1.0352e-14
4244.24 1.1029e-14
4246.98 1.096e-14
4249.72 1.0351e-14
4252.45 9.7836e-15
4255.19 1.0966e-14
4257.93 1.0625e-14
4260.67 1.0396e-14
4263.41 1.0073e-14
4266.15 1.0133e-14
4268.89 1.0959e-14
4271.63 9.1621e-15
4274.37 1.0019e-14
4277.11 9.9639e-15
4279.85 1.0508e-14
4282.58 1.0487e-14
4285.32 1.0032e-14
4288.06 1.0094e-14
4290.8 1.0468e-14
4293.54 1.0667e-14
4296.28 9.1176e-15
4299.02 9.3445e-15
4301.76 1.0058e-14
4304.5 9.5466e-15
4307.24 9.7301e-15
4309.97 9.1591e-15
4312.71 9.1976e-15
4315.45 1.0006e-14
4318.19 1.0284e-14
4320.93 1.1144e-14
4323.67 1.1326e-14
4326.41 9.7945e-15
4329.15 9.5158e-15
4331.89 9.5155e-15
4334.63 1.1157e-14
4337.37 1.4707e-14
4340.1 1.8133e-14
4342.84 1.9379e-14
4345.58 1.5815e-14
4348.32 1.2349e-14
4351.06 1.0748e-14
4353.8 1.0331e-14
4356.54 1.0103e-14
4359.28 1.0479e-14
4362.02 1.2105e-14
4364.76 1.1461e-14
4367.5 1.1578e-14
4370.23 1.0358e-14
4372.97 1.0223e-14
4375.71 1.041e-14
4378.45 1.0635e-14
4381.19 9.7129e-15
4383.93 9.8431e-15
4386.67 9.9331e-15
4389.41 9.7837e-15
4392.15 9.5215e-15
4394.89 9.5858e-15
4397.62 1.0018e-14
4400.36 1.0271e-14
4403.1 1.0376e-14
4405.84 1.0443e-14
4408.58 1.014e-14
4411.32 1.1113e-14
4414.06 1.101e-14
4416.8 1.0461e-14
4419.54 1.0191e-14
4422.28 1.1056e-14
4425.02 1.0492e-14
4427.75 1.053e-14
4430.49 9.8566e-15
4433.23 9.4504e-15
4435.97 1.0237e-14
4438.71 1.0666e-14
4441.45 1.0385e-14
4444.19 1.0446e-14
4446.93 1.0087e-14
4449.67 1.0329e-14
4452.41 1.0634e-14
4455.15 1.0176e-14
4457.88 1.0412e-14
4460.62 1.0512e-14
4463.36 1.0353e-14
4466.1 1.0922e-14
4468.84 1.1149e-14
4471.58 1.1139e-14
4474.32 1.158e-14
4477.06 1.2109e-14
4479.8 1.1325e-14
4482.54 1.1248e-14
4485.27 1.0705e-14
4488.01 1.0265e-14
4490.75 1.0067e-14
4493.49 1.032e-14
4496.23 1.0876e-14
4498.97 1.1119e-14
4501.71 1.1035e-14
4504.45 1.0695e-14
4507.19 1.1019e-14
4509.93 1.15e-14
4512.67 1.1796e-14
4515.4 1.1259e-14
4518.14 1.0951e-14
4520.88 1.1165e-14
4523.62 1.0715e-14
4526.36 9.5761e-15
4529.1 1.0062e-14
4531.84 1.0608e-14
4534.58 1.08e-14
4537.32 1.0544e-14
4540.06 1.0535e-14
4542.8 1.079e-14
4545.53 1.0477e-14
4548.27 1.0289e-14
4551.01 1.0628e-14
4553.75 1.0669e-14
4556.49 1.1003e-14
4559.23 1.111e-14
4561.97 1.1056e-14
4564.71 1.1257e-14
4567.45 1.1341e-14
4570.19 1.0882e-14
4572.93 1.0956e-14
4575.66 1.079e-14
4578.4 1.098e-14
4581.14 1.0761e-14
4583.88 1.0398e-14
4586.62 1.0872e-14
4589.36 1.1076e-14
4592.1 1.0952e-14
4594.84 1.0999e-14
4597.58 1.0917e-14
4600.32 1.0921e-14
4603.05 1.1363e-14
4605.79 1.1395e-14
4608.53 1.1123e-14
4611.27 1.139e-14
4614.01 1.1008e-14
4616.75 1.1198e-14
4619.49 1.1231e-14
4622.23 1.1198e-14
4624.97 1.1337e-14
4627.71 1.129e-14
4630.45 1.0557e-14
4633.18 1.0719e-14
4635.92 1.1289e-14
4638.66 1.1304e-14
4641.4 1.1036e-14
4644.14 1.1304e-14
4646.88 1.1186e-14
4649.62 1.098e-14
4652.36 1.0649e-14
4655.1 1.0536e-14
4657.84 1.0495e-14
4660.58 1.0648e-14
4663.31 1.065e-14
4666.05 1.0839e-14
4668.79 1.0671e-14
4671.53 1.1042e-14
4674.27 1.0869e-14
4677.01 1.0689e-14
4679.75 1.0972e-14
4682.49 1.1521e-14
4685.23 1.1453e-14
4687.97 1.0906e-14
4690.7 1.0698e-14
4693.44 1.1279e-14
4696.18 1.1007e-14
4698.92 1.087e-14
4701.66 1.0657e-14
4704.4 1.0613e-14
4707.14 1.0471e-14
4709.88 1.0531e-14
4712.62 1.0704e-14
4715.36 1.0855e-14
4718.1 1.047e-14
4720.83 1.0814e-14
4723.57 1.1023e-14
4726.31 1.1047e-14
4729.05 1.1146e-14
4731.79 1.1597e-14
4734.53 1.1146e-14
4737.27 1.1368e-14
4740.01 1.125e-14
4742.75 1.0957e-14
4745.49 1.1336e-14
4748.23 1.1091e-14
4750.96 1.1451e-14
4753.7 1.1065e-14
4756.44 1.0911e-14
4759.18 1.0798e-14
4761.92 1.0721e-14
4764.66 1.0622e-14
4767.4 1.0533e-14
4770.14 1.0403e-14
4772.88 1.0677e-14
4775.62 1.0922e-14
4778.35 1.0983e-14
4781.09 1.1033e-14
4783.83 1.0917e-14
4786.57 1.0764e-14
4789.31 1.1363e-14
4792.05 1.0872e-14
4794.79 1.0711e-14
4797.53 1.0758e-14
4800.27 1.1249e-14
4803.01 1.1028e-14
4805.75 1.0975e-14
4808.48 1.1442e-14
4811.22 1.0955e-14
4813.96 1.0789e-14
4816.7 1.0742e-14
4819.44 1.1019e-14
4822.18 1.0983e-14
4824.92 1.0892e-14
4827.66 1.0778e-14
4830.4 1.1011e-14
4833.14 1.1042e-14
4835.88 1.0793e-14
4838.61 1.0529e-14
4841.35 1.0601e-14
4844.09 1.0831e-14
4846.83 1.0695e-14
4849.57 1.0045e-14
4852.31 1.0867e-14
4855.05 1.2979e-14
4857.79 2.1124e-14
4860.53 3.2306e-14
4863.27 3.608e-14
4866.01 2.87e-14
4868.74 1.788e-14
4871.48 1.2262e-14
4874.22 1.104e-14
4876.96 1.0239e-14
4879.7 1.1048e-14
4882.44 1.0547e-14
4885.18 9.7902e-15
4887.92 1.071e-14
4890.66 1.0614e-14
4893.4 1.0487e-14
4896.13 1.0983e-14
4898.87 1.1178e-14
4901.61 1.088e-14
4904.35 1.0834e-14
4907.09 1.1e-14
4909.83 1.0312e-14
4912.57 1.0676e-14
4915.31 1.0301e-14
4918.05 1.025e-14
4920.79 1.0811e-14
4923.53 1.0391e-14
4926.26 1.0425e-14
4929.0 1.0217e-14
4931.74 1.0162e-14
4934.48 9.5433e-15
4937.22 1.0345e-14
4939.96 1.1037e-14
4942.7 1.0748e-14
4945.44 1.0819e-14
4948.18 1.1101e-14
4950.92 1.2321e-14
4953.66 1.3687e-14
4956.39 2.0782e-14
4959.13 2.6942e-14
4961.87 2.7525e-14
4964.61 2.0402e-14
4967.35 1.4025e-14
4970.09 1.1671e-14
4972.83 1.075e-14
4975.57 1.0521e-14
4978.31 1.0162e-14
4981.05 1.0529e-14
4983.78 1.1059e-14
4986.52 1.0589e-14
4989.26 1.109e-14
4992.0 1.0964e-14
4994.74 1.0991e-14
4997.48 1.2006e-14
5000.22 1.5779e-14
5002.96 2.8397e-14
5005.7 5.1289e-14
5008.44 6.3809e-14
5011.18 5.2021e-14
5013.91 2.9479e-14
5016.65 1.6339e-14
5019.39 1.275e-14
5022.13 1.1233e-14
5024.87 1.0405e-14
5027.61 1.01e-14
5030.35 1.0285e-14
5033.09 1.0213e-14
5035.83 1.0449e-14
5038.57 1.1188e-14
5041.31 1.0469e-14
5044.04 1.003e-14
5046.78 1.0415e-14
5049.52 1.0923e-14
5052.26 1.0718e-14
5055.0 9.8833e-15
5057.74 1.0521e-14
5060.48 9.9286e-15
5063.22 1.0422e-14
5065.96 1.045e-14
5068.7 1.057e-14
5071.44 1.1118e-14
5074.17 1.0988e-14
5076.91 1.0038e-14
5079.65 1.0046e-14
5082.39 1.0197e-14
5085.13 1.0321e-14
5087.87 1.0387e-14
5090.61 1.0574e-14
5093.35 1.0197e-14
5096.09 1.0775e-14
5098.83 9.8114e-15
5101.56 1.0496e-14
5104.3 1.0917e-14
5107.04 1.0725e-14
5109.78 1.0159e-14
5112.52 9.5218e-15
5115.26 1.0538e-14
5118.0 1.0554e-14
5120.74 1.0738e-14
5123.48 1.0486e-14
5126.22 9.627e-15
5128.96 1.0894e-14
5131.69 1.011e-14
5134.43 1.0328e-14
5137.17 9.7807e-15
5139.91 1.034e-14
5142.65 1.0368e-14
5145.39 1.027e-14
5148.13 1.0249e-14
5150.87 1.0431e-14
5153.61 1.0285e-14
5156.35 9.5535e-15
5159.09 1.0824e-14
5161.82 1.0367e-14
5164.56 1.042e-14
5167.3 9.9662e-15
5170.04 9.2324e-15
5172.78 8.8357e-15
5175.52 8.9109e-15
5178.26 9.7598e-15
5181.0 9.8324e-15
5183.74 1.0025e-14
5186.48 9.6842e-15
5189.21 9.796e-15
5191.95 9.8422e-15
5194.69 1.0717e-14
5197.43 1.1163e-14
5200.17 1.1676e-14
5202.91 1.0856e-14
5205.65 1.0501e-14
5208.39 1.0105e-14
5211.13 9.9529e-15
5213.87 1.0091e-14
5216.61 1.0263e-14
5219.34 1.0079e-14
5222.08 1.0455e-14
5224.82 1.0056e-14
5227.56 9.6436e-15
5230.3 9.5848e-15
5233.04 1.0107e-14
5235.78 1.045e-14
5238.52 9.9346e-15
5241.26 1.0086e-14
5244.0 1.0361e-14
5246.74 1.0569e-14
5249.47 1.0334e-14
5252.21 1.0037e-14
5254.95 1.0195e-14
5257.69 1.0015e-14
5260.43 1.071e-14
5263.17 1.0056e-14
5265.91 9.1161e-15
5268.65 9.8347e-15
5271.39 9.6857e-15
5274.13 1.0158e-14
5276.86 1.0029e-14
5279.6 1.094e-14
5282.34 1.0155e-14
5285.08 1.0853e-14
5287.82 1.0882e-14
5290.56 1.0155e-14
5293.3 1.1331e-14
5296.04 1.0793e-14
5298.78 1.0474e-14
5301.52 1.0413e-14
5304.26 1.062e-14
5306.99 1.0091e-14
5309.73 1.1117e-14
5312.47 1.074e-14
5315.21 1.0545e-14
5317.95 1.0446e-14
5320.69 1.0126e-14
5323.43 1.022e-14
5326.17 1.0172e-14
5328.91 1.015e-14
5331.65 1.0463e-14
5334.39 1.0196e-14
5337.12 1.0364e-14
5339.86 1.0324e-14
5342.6 1.0831e-14
5345.34 1.0472e-14
5348.08 1.0785e-14
5350.82 1.122e-14
5353.56 1.1432e-14
5356.3 1.076e-14
5359.04 1.0919e-14
5361.78 1.0493e-14
5364.52 1.0731e-14
5367.25 9.7584e-15
5369.99 9.617e-15
5372.73 1.0465e-14
5375.47 1.0204e-14
5378.21 1.0518e-14
5380.95 1.0823e-14
5383.69 1.0646e-14
5386.43 1.0944e-14
5389.17 1.0395e-14
5391.91 1.0592e-14
5394.64 1.0782e-14
5397.38 9.8386e-15
5400.12 1.0399e-14
5402.86 1.0024e-14
5405.6 1.0262e-14
5408.34 9.9699e-15
5411.08 9.887e-15
5413.82 1.0439e-14
5416.56 9.9519e-15
5419.3 1.0641e-14
5422.04 1.0851e-14
5424.77 1.0026e-14
5427.51 1.0466e-14
5430.25 1.0595e-14
5432.99 9.5439e-15
5435.73 1.0053e-14
5438.47 9.7291e-15
5441.21 1.0766e-14
5443.95 1.0839e-14
5446.69 1.0924e-14
5449.43 1.056e-14
5452.17 1.0383e-14
5454.9 9.7393e-15
5457.64 1.0245e-14
5460.38 1.014e-14
5463.12 1.0389e-14
5465.86 1.0581e-14
5468.6 1.0387e-14
5471.34 1.0055e-14
5474.08 1.0538e-14
5476.82 1.0193e-14
5479.56 9.5126e-15
5482.29 1.0198e-14
5485.03 1.0378e-14
5487.77 1.0127e-14
5490.51 1.0314e-14
5493.25 1.0058e-14
5495.99 1.0383e-14
5498.73 1.0504e-14
5501.47 9.8287e-15
5504.21 1.0379e-14
5506.95 1.0604e-14
5509.69 1.0797e-14
5512.42 1.1136e-14
5515.16 1.0406e-14
5517.9 1.0667e-14
5520.64 1.0354e-14
5523.38 1.026e-14
5526.12 1.071e-14
5528.86 9.8064e-15
5531.6 1.004e-14
5534.34 9.496e-15
5537.08 1.0205e-14
5539.82 1.0086e-14
5542.55 1.0436e-14
5545.29 1.0335e-14
5548.03 1.0385e-14
5550.77 1.0578e-14
5553.51 1.0658e-14
5556.25 1.0195e-14
5558.99 1.1014e-14
5561.73 1.0273e-14
5564.47 1.1039e-14
5567.21 1.0573e-14
5569.94 1.0515e-14
5572.68 1.0164e-14
5575.42 9.8189e-15
5578.16 1.0521e-14
5580.9 9.7976e-15
5583.64 1.0457e-14
5586.38 1.0455e-14
5589.12 1.0236e-14
5591.86 1.0091e-14
5594.6 9.8074e-15
5597.34 9.816e-15
5600.07 1.0043e-14
5602.81 1.0557e-14
5605.55 1.043e-14
5608.29 1.017e-14
5611.03 1.025e-14
5613.77 1.0355e-14
5616.51 1.0163e-14
5619.25 1.0507e-14
5621.99 1.0504e-14
5624.73 1.0127e-14
5627.47 9.9587e-15
5630.2 9.921e-15
5632.94 1.0272e-14
5635.68 1.0629e-14
5638.42 1.0401e-14
5641.16 1.0036e-14
5643.9 1.0583e-14
5646.64 1.0171e-14
5649.38 9.7895e-15
5652.12 9.6789e-15
5654.86 9.6777e-15
5657.6 9.9338e-15
5660.33 9.7056e-15
5663.07 1.0136e-14
5665.81 9.9889e-15
5668.55 9.7707e-15
5671.29 9.8152e-15
5674.03 1.0755e-14
5676.77 1.0186e-14
5679.51 1.026e-14
5682.25 1.0048e-14
5684.99 9.9595e-15
5687.72 9.9637e-15
5690.46 1.0245e-14
5693.2 1.0528e-14
5695.94 1.0236e-14
5698.68 9.9739e-15
5701.42 1.0601e-14
5704.16 1.0329e-14
5706.9 9.5579e-15
5709.64 9.5047e-15
5712.38 9.6022e-15
5715.12 9.5332e-15
5717.85 9.8125e-15
5720.59 1.0369e-14
5723.33 1.0303e-14
5726.07 1.0279e-14
5728.81 1.0511e-14
5731.55 1.0833e-14
5734.29 1.0443e-14
5737.03 1.0817e-14
5739.77 1.0353e-14
5742.51 1.0659e-14
5745.25 1.0135e-14
5747.98 9.8401e-15
5750.72 9.9719e-15
5753.46 1.0097e-14
5756.2 1.0271e-14
5758.94 1.0216e-14
5761.68 1.0124e-14
5764.42 1.0337e-14
5767.16 1.06e-14
5769.9 1.1177e-14
5772.64 1.1219e-14
5775.37 1.0569e-14
5778.11 1.0209e-14
5780.85 1.0046e-14
5783.59 9.9289e-15
5786.33 9.6072e-15
5789.07 9.6448e-15
5791.81 9.7167e-15
5794.55 9.8907e-15
5797.29 1.0475e-14
5800.03 1.0164e-14
5802.77 1.0919e-14
5805.5 1.09e-14
5808.24 1.0537e-14
5810.98 1.0441e-14
5813.72 1.029e-14
5816.46 1.0369e-14
5819.2 1.0179e-14
5821.94 1.0227e-14
5824.68 1.0859e-14
5827.42 1.0531e-14
5830.16 1.1071e-14
5832.9 1.0876e-14
5835.63 1.0388e-14
5838.37 1.0095e-14
5841.11 1.0393e-14
5843.85 1.0223e-14
5846.59 1.0575e-14
5849.33 1.0224e-14
5852.07 1.0756e-14
5854.81 1.0124e-14
5857.55 1.0053e-14
5860.29 9.8497e-15
5863.02 9.0696e-15
5865.76 9.9297e-15
5868.5 9.102e-15
5871.24 1.0678e-14
5873.98 1.2844e-14
5876.72 1.2935e-14
5879.46 1.2175e-14
5882.2 1.098e-14
5884.94 1.0486e-14
5887.68 9.6968e-15
5890.42 1.0261e-14
5893.15 9.4454e-15
5895.89 9.2119e-15
5898.63 9.0186e-15
5901.37 9.7595e-15
5904.11 9.3675e-15
5906.85 1.0127e-14
5909.59 1.0051e-14
5912.33 9.3849e-15
5915.07 1.0234e-14
5917.81 9.6279e-15
5920.55 9.7351e-15
5923.28 1.0191e-14
5926.02 9.6626e-15
5928.76 1.021e-14
5931.5 9.4108e-15
5934.24 9.4765e-15
5936.98 1.0006e-14
5939.72 9.331e-15
5942.46 9.5512e-15
5945.2 1.0437e-14
5947.94 1.054e-14
5950.68 9.7263e-15
5953.41 1.0027e-14
5956.15 1.0065e-14
5958.89 1.011e-14
5961.63 9.1521e-15
5964.37 1.0185e-14
5967.11 9.7923e-15
5969.85 1.0636e-14
5972.59 9.9216e-15
5975.33 1.0176e-14
5978.07 9.8209e-15
5980.8 9.7356e-15
5983.54 1.0063e-14
5986.28 9.4101e-15
5989.02 1.0232e-14
5991.76 1.033e-14
5994.5 1.0119e-14
5997.24 9.7647e-15
5999.98 1.0147e-14
6002.72 1.0255e-14
6005.46 9.7718e-15
6008.2 1.0205e-14
6010.93 9.2424e-15
6013.67 1.0445e-14
6016.41 9.9012e-15
6019.15 1.0263e-14
6021.89 9.2842e-15
6024.63 9.8041e-15
6027.37 1.0181e-14
6030.11 1.0502e-14
6032.85 9.4823e-15
6035.59 9.739e-15
6038.33 9.5205e-15
6041.06 9.8966e-15
6043.8 1.0045e-14
6046.54 9.7997e-15
6049.28 9.6702e-15
6052.02 1.0229e-14
6054.76 1.0162e-14
6057.5 9.622e-15
6060.24 1.0115e-14
6062.98 1.0294e-14
6065.72 1.0055e-14
6068.45 1.0194e-14
6071.19 9.1944e-15
6073.93 1.0082e-14
6076.67 9.7534e-15
6079.41 9.6494e-15
6082.15 9.5075e-15
6084.89 9.2758e-15
6087.63 9.9164e-15
6090.37 9.749e-15
6093.11 9.6915e-15
6095.85 9.8859e-15
6098.58 9.4944e-15
6101.32 9.8844e-15
6104.06 1.0162e-14
6106.8 1.0254e-14
6109.54 9.671e-15
6112.28 9.9325e-15
6115.02 9.9325e-15
6117.76 1.0018e-14
6120.5 9.8523e-15
6123.24 9.7368e-15
6125.98 9.4371e-15
6128.71 9.2994e-15
6131.45 9.4025e-15
6134.19 9.7067e-15
6136.93 9.3106e-15
6139.67 9.4211e-15
6142.41 9.5569e-15
6145.15 9.0979e-15
6147.89 9.196e-15
6150.63 9.5888e-15
6153.37 9.3929e-15
6156.11 9.1352e-15
6158.84 9.2973e-15
6161.58 9.6189e-15
6164.32 9.4569e-15
6167.06 9.0297e-15
6169.8 9.1223e-15
6172.54 9.3855e-15
6175.28 9.7055e-15
6178.02 9.7319e-15
6180.76 9.7487e-15
6183.5 9.5246e-15
6186.23 9.5203e-15
6188.97 9.5294e-15
6191.71 9.7317e-15
6194.45 1.0041e-14
6197.19 9.7169e-15
6199.93 9.5049e-15
6202.67 9.5015e-15
6205.41 9.3083e-15
6208.15 9.269e-15
6210.89 8.9768e-15
6213.63 9.4453e-15
6216.36 8.9951e-15
6219.1 9.2296e-15
6221.84 9.5716e-15
6224.58 9.4135e-15
6227.32 8.8662e-15
6230.06 8.6463e-15
6232.8 9.6311e-15
6235.54 9.7868e-15
6238.28 9.6197e-15
6241.02 9.5804e-15
6243.76 9.2031e-15
6246.49 8.8403e-15
6249.23 9.5109e-15
6251.97 9.2547e-15
6254.71 8.7846e-15
6257.45 9.2875e-15
6260.19 9.3674e-15
6262.93 8.9773e-15
6265.67 9.639e-15
6268.41 9.3108e-15
6271.15 1.0277e-14
6273.88 9.521e-15
6276.62 9.7989e-15
6279.36 9.4777e-15
6282.1 9.3825e-15
6284.84 9.7498e-15
6287.58 9.0194e-15
6290.32 8.8952e-15
6293.06 9.7504e-15
6295.8 1.1906e-14
6298.54 1.3236e-14
6301.28 1.4724e-14
6304.01 1.4394e-14
6306.75 1.1302e-14
6309.49 1.1064e-14
6312.23 1.0102e-14
6314.97 9.6084e-15
6317.71 9.9228e-15
6320.45 9.7049e-15
6323.19 9.4739e-15
6325.93 1.011e-14
6328.67 9.7817e-15
6331.41 8.9412e-15
6334.14 9.8959e-15
6336.88 9.4879e-15
6339.62 9.0344e-15
6342.36 9.7181e-15
6345.1 1.0047e-14
6347.84 9.4197e-15
6350.58 9.8473e-15
6353.32 1.0088e-14
6356.06 9.5333e-15
6358.8 9.8037e-15
6361.53 1.0073e-14
6364.27 9.5398e-15
6367.01 9.8404e-15
6369.75 1.0436e-14
6372.49 1.0393e-14
6375.23 1.0097e-14
6377.97 1.0154e-14
6380.71 1.1019e-14
6383.45 1.0614e-14
6386.19 1.0536e-14
6388.93 1.0395e-14
6391.66 1.024e-14
6394.4 9.4827e-15
6397.14 9.4818e-15
6399.88 9.4137e-15
6402.62 9.3454e-15
6405.36 1.0061e-14
6408.1 1.0457e-14
6410.84 1.0311e-14
6413.58 1.0045e-14
6416.32 1.0222e-14
6419.06 9.6649e-15
6421.79 1.0542e-14
6424.53 1.0569e-14
6427.27 1.0331e-14
6430.01 9.4984e-15
6432.75 9.1801e-15
6435.49 9.4057e-15
6438.23 8.6507e-15
6440.97 9.6893e-15
6443.71 9.6281e-15
6446.45 9.5053e-15
6449.19 9.3744e-15
6451.92 9.0302e-15
6454.66 9.4873e-15
6457.4 9.6038e-15
6460.14 9.248e-15
6462.88 9.3108e-15
6465.62 1.0062e-14
6468.36 9.3675e-15
6471.1 9.3396e-15
6473.84 9.7789e-15
6476.58 9.7961e-15
6479.31 9.4332e-15
6482.05 9.0834e-15
6484.79 1.0283e-14
6487.53 9.9375e-15
6490.27 9.674e-15
6493.01 9.7202e-15
6495.75 8.8417e-15
6498.49 9.2061e-15
6501.23 9.6887e-15
6503.97 9.4966e-15
6506.71 9.7421e-15
6509.44 9.8331e-15
6512.18 9.6048e-15
6514.92 9.0686e-15
6517.66 9.5084e-15
6520.4 8.9208e-15
6523.14 9.9182e-15
6525.88 9.1315e-15
6528.62 9.4349e-15
6531.36 9.7671e-15
6534.1 1.0474e-14
6536.84 1.0411e-14
6539.57 1.019e-14
6542.31 1.1069e-14
6545.05 1.3797e-14
6547.79 1.6762e-14
6550.53 1.7709e-14
6553.27 1.6258e-14
6556.01 2.187e-14
6558.75 4.6266e-14
6561.49 8.9289e-14
6564.23 1.0983e-13
6566.96 8.6588e-14
6569.7 4.5947e-14
6572.44 2.1124e-14
6575.18 1.359e-14
6577.92 1.5247e-14
6580.66 2.3797e-14
6583.4 3.149e-14
6586.14 3.141e-14
6588.88 2.3634e-14
6591.62 1.5421e-14
6594.36 1.1736e-14
6597.09 9.9709e-15
6599.83 9.7005e-15
6602.57 9.3208e-15
6605.31 9.7089e-15
6608.05 1.0625e-14
6610.79 9.7423e-15
6613.53 1.0325e-14
6616.27 9.9182e-15
6619.01 9.6211e-15
6621.75 1.0276e-14
6624.49 1.0028e-14
6627.22 1.0045e-14
6629.96 9.096e-15
6632.7 9.8158e-15
6635.44 9.6699e-15
6638.18 9.4781e-15
6640.92 9.0853e-15
6643.66 9.5005e-15
6646.4 9.6859e-15
6649.14 9.5778e-15
6651.88 9.5203e-15
6654.61 9.8242e-15
6657.35 9.7031e-15
6660.09 9.431e-15
6662.83 9.8122e-15
6665.57 9.5987e-15
6668.31 9.642e-15
6671.05 9.6347e-15
6673.79 9.599e-15
6676.53 1.0236e-14
6679.27 1.0067e-14
6682.01 1.0308e-14
6684.74 9.3235e-15
6687.48 9.1139e-15
6690.22 9.3678e-15
6692.96 9.6778e-15
6695.7 9.4631e-15
6698.44 8.791e-15
6701.18 9.1273e-15
6703.92 9.314e-15
6706.66 1.0005e-14
6709.4 1.1356e-14
6712.14 1.5075e-14
6714.87 2.3931e-14
6717.61 2.9259e-14
6720.35 2.5014e-14
6723.09 1.6991e-14
6725.83 1.4771e-14
6728.57 1.9464e-14
6731.31 2.2603e-14
6734.05 2.1619e-14
6736.79 1.5771e-14
6739.53 1.1461e-14
6742.27 9.4391e-15
6745.0 1.0134e-14
6747.74 9.4774e-15
6750.48 1.0243e-14
6753.22 9.7772e-15
6755.96 8.9965e-15
6758.7 9.6913e-15
6761.44 9.5865e-15
6764.18 9.2623e-15
6766.92 9.5469e-15
6769.66 9.1015e-15
6772.39 9.4188e-15
6775.13 9.4292e-15
6777.87 9.754e-15
6780.61 9.0612e-15
6783.35 9.8838e-15
6786.09 9.4977e-15
6788.83 9.1767e-15
6791.57 8.689e-15
6794.31 8.2876e-15
6797.05 8.9989e-15
6799.79 9.3387e-15
6802.52 9.0657e-15
6811.92 9.3876e-15
6827.63 9.3838e-15
6843.36 9.4668e-15
6859.14 9.2689e-15
6874.95 9.2864e-15
6890.8 9.0922e-15
6906.69 9.2362e-15
6922.61 9.275e-15
6938.57 9.4653e-15
6954.56 9.4614e-15
6970.59 9.523e-15
6986.66 9.0906e-15
7002.77 9.4713e-15
7018.91 9.4456e-15
7035.09 9.3766e-15
7051.31 9.7021e-15
7067.57 9.0091e-15
7083.86 9.2789e-15
7100.19 8.7966e-15
7116.56 8.8131e-15
7132.96 8.7286e-15
7149.4 8.7248e-15
7165.89 8.8018e-15
7182.4 8.5977e-15
7198.96 8.4177e-15
7215.55 8.4335e-15
7232.19 8.8475e-15
7248.86 8.803e-15
7265.57 9.1084e-15
7282.32 8.8767e-15
7299.11 8.6111e-15
7315.93 9.013e-15
7332.8 9.0506e-15
7349.7 9.4077e-15
7366.64 9.3174e-15
7383.63 9.4428e-15
7400.65 9.3305e-15
7417.71 9.2409e-15
7434.81 9.5833e-15
7451.95 9.2752e-15
7469.13 9.1228e-15
7486.34 9.4608e-15
7503.6 9.1566e-15
7520.9 9.4522e-15
7538.24 9.3829e-15
7555.62 9.4872e-15
7573.03 9.4393e-15
7590.49 9.4567e-15
7607.98 9.2159e-15
7625.53 9.002e-15
7643.1 9.0602e-15
7660.72 8.8702e-15
7678.38 8.5062e-15
7696.08 8.7203e-15
7713.82 8.5966e-15
7731.61 8.6521e-15
7749.43 8.668e-15
7767.29 8.545e-15
7785.2 8.4822e-15
7803.15 8.5763e-15
7821.13 8.7517e-15
7839.16 8.4311e-15
7857.24 8.6433e-15
7875.35 8.7795e-15
7893.5 8.7551e-15
7911.7 8.6109e-15
7929.94 8.4691e-15
7948.22 8.3681e-15
7966.54 8.5e-15
7984.91 8.6537e-15
8003.31 8.4332e-15
8021.76 8.6852e-15
8040.25 8.8219e-15
8058.79 8.6966e-15
8077.36 8.514e-15
8095.99 8.7281e-15
8114.65 8.6637e-15
8133.35 8.8203e-15
8152.11 8.5954e-15
8170.9 7.9625e-15
8189.73 8.3335e-15
8208.61 8.1585e-15
8227.54 8.4799e-15
8246.5 8.7331e-15
8265.51 8.3743e-15
8284.57 8.2933e-15
8303.66 8.3081e-15
8322.8 8.4778e-15
8341.99 8.1857e-15
8361.22 8.5671e-15
8380.5 8.4451e-15
8399.82 8.2867e-15
8419.18 8.4364e-15
8438.59 8.4904e-15
8458.04 8.1414e-15
8477.54 7.6997e-15
8497.08 8.3032e-15
8516.67 8.1849e-15
8536.3 8.1056e-15
8555.98 7.3039e-15
8575.7 8.2855e-15
8595.47 8.1675e-15
8615.29 8.0326e-15
8635.15 8.2722e-15
8655.05 8.0982e-15
8675.01 7.0009e-15
8695.0 7.9235e-15
8715.05 8.1037e-15
8735.14 8.193e-15
8755.27 7.82e-15
8775.46 7.9427e-15
8795.69 8.2743e-15
8815.96 7.3365e-15
8836.29 8.1143e-15
8856.65 7.9801e-15
8877.07 7.2739e-15
8897.54 7.88e-15
8918.04 8.0035e-15
8938.61 7.8169e-15
8959.21 7.8126e-15
8979.86 7.5954e-15
9000.57 6.7811e-15
9021.31 6.9832e-15
9042.11 8.0317e-15
9062.96 8.233e-15
9083.85 7.8943e-15
9104.79 7.8897e-15
9125.77 7.5651e-15
9146.81 7.304e-15
9167.9 7.6968e-15
9189.03 7.7993e-15
9210.22 7.8308e-15
9231.45 7.6129e-15
9252.73 7.4868e-15
9274.06 7.7811e-15
9295.44 7.3754e-15
9316.86 7.6829e-15
9338.34 7.6961e-15
9359.87 7.6915e-15
9381.44 7.6693e-15
9403.07 7.5248e-15
9424.75 7.7132e-15
9446.47 7.6028e-15
9468.25 7.7394e-15
9490.08 7.7348e-15
9511.96 7.5541e-15
9533.88 7.5495e-15
9555.86 7.2219e-15
9577.89 7.5403e-15
9599.97 7.6935e-15
9622.1 7.6534e-15
9644.28 7.5786e-15
9666.51 7.5564e-15
9688.79 7.6392e-15
9711.13 7.5297e-15
9733.52 7.4732e-15
9755.95 7.4342e-15
9778.45 7.4638e-15
9800.99 7.3907e-15
9823.58 7.4544e-15
9846.22 7.4841e-15
9868.92 7.4449e-15
9891.67 7.4231e-15
9914.47 7.4013e-15
9937.33 7.4478e-15
9960.24 7.4602e-15
9983.2 7.4211e-15
10029.27 7.3944e-15
10075.58 7.2667e-15
10122.08 7.4777e-15
10168.8 7.4164e-15
10215.74 7.4751e-15
10286.55 7.5119e-15
10310.26 7.4896e-15
10501.94 7.2125e-15
10697.19 6.889e-15
10896.07 6.5941e-15
11098.64 6.2109e-15
11304.97 6.2109e-15
11488.66 6.254e-15
11702.27 6.154e-15
11892.41 5.8906e-15
12113.5 5.877e-15
12310.33 5.8097e-15
12510.36 5.6384e-15
12713.63 5.5228e-15
12890.5 5.4345e-15
13099.95 5.3599e-15
13312.81 5.2018e-15
13498.01 5.0951e-15
13685.79 5.0137e-15
13908.16 4.8101e-15
14101.64 4.5515e-15
14297.82 4.4684e-15
14496.72 4.4994e-15
14698.39 4.3467e-15
14902.87 4.4275e-15
15110.19 4.4684e-15
15285.15 4.5411e-15
15497.79 4.5306e-15
15713.38 4.4071e-15
15895.34 4.2088e-15
16116.47 4.1798e-15
16303.09 4.1702e-15
16491.86 4.132e-15
16682.83 4.151e-15
16914.91 4.132e-15
17110.78 4.1035e-15
17308.9 3.9733e-15
17509.34 3.874e-15
17712.09 3.7338e-15
17917.19 3.5988e-15
18082.96 3.4289e-15
18292.36 3.3432e-15
18504.18 3.2371e-15
18718.45 3.0914e-15
18891.64 3.021e-15
19110.4 2.9796e-15
19287.23 2.8984e-15
19510.55 2.7936e-15
19691.09 2.6987e-15
19919.11 2.6191e-15
20103.4 2.5772e-15
20289.43 2.5012e-15
20477.17 2.4726e-15
20714.27 2.4163e-15
20905.94 2.3722e-15
21099.39 2.3397e-15
21294.61 2.2917e-15
21491.65 2.2499e-15
21690.5 2.1785e-15
21891.21 2.1437e-15
22093.78 2.09e-15
22298.19 2.0378e-15
22504.53 1.996e-15
22712.74 1.9461e-15
22922.91 1.7545e-15
23081.79 1.7424e-15
23295.38 1.5352e-15
23510.94 1.436e-15
23673.89 1.4593e-15
23892.96 1.3526e-15
24114.02 1.3036e-15
24281.18 1.2887e-15
24505.84 1.2055e-15
24675.72 1.1807e-15
24904.02 1.005e-15
25076.67 1.0004e-15
25308.71 1.0119e-15
25484.13 1.0119e-15
25719.94 1.0308e-15
25898.21 1.0143e-15
26077.74 1.0096e-15
26319.02 9.8664e-16
26501.47 9.7759e-16
26685.15 9.5975e-16
26870.14 9.4658e-16
27118.75 9.3574e-16
27306.75 9.1866e-16
27496.01 9.0398e-16
27686.59 8.8544e-16
27878.52 8.753e-16
28071.75 8.5932e-16
28331.51 8.4753e-16
28527.88 8.3398e-16
28725.65 8.1876e-16
28924.75 8.0753e-16
29125.26 7.9461e-16
29327.13 7.8011e-16
29530.44 7.6764e-16
29666.73 7.5711e-16
29872.39 7.4329e-16
30079.44 7.3309e-16
30287.93 7.1971e-16
30497.89 7.1311e-16
30709.28 7.0495e-16
30922.16 6.9528e-16
31064.88 6.889e-16
31280.23 6.8102e-16
31497.04 6.7322e-16
31715.35 6.6705e-16
31935.21 6.6398e-16
32082.61 6.6398e-16
32305.01 6.7013e-16
32528.92 6.9368e-16
32679.06 7.6764e-16
32905.6 9.821e-16
33133.67 9.731e-16
33286.64 7.4158e-16
33517.35 6.5186e-16
33672.05 6.1116e-16
33905.47 6.7406e-16
34061.96 6.5934e-16
34298.09 6.3713e-16
34535.82 6.1476e-16
34695.22 6.0216e-16
34935.73 5.8329e-16
35096.97 5.7065e-16
35340.28 5.5295e-16
35503.39 5.4226e-16
35667.25 5.3152e-16
35914.51 5.1532e-16
36080.27 5.0599e-16
36330.35 4.9229e-16
36498.07 4.831e-16
36666.52 4.7397e-16
36920.66 4.6233e-16
37091.11 4.5452e-16
37262.3 4.4668e-16
37520.62 4.3584e-16
37693.79 4.2921e-16
37867.77 4.2256e-16
38130.28 4.1252e-16
38306.26 4.0687e-16
38483.06 4.0123e-16
38660.72 3.9557e-16
38928.69 3.8719e-16
39108.36 3.8244e-16
39288.9 3.7768e-16
39470.24 3.7288e-16
39743.82 3.6596e-16
39927.3 3.6197e-16
40111.58 3.5797e-16
40296.71 3.5394e-16
40482.74 3.4994e-16
40669.59 3.4663e-16
40857.3 3.4331e-16
41140.53 3.383e-16
41330.42 3.3511e-16
41521.17 3.3241e-16
41712.86 3.2969e-16
41905.38 3.2696e-16
42098.8 3.2422e-16
42293.1 3.2205e-16
42488.35 3.1989e-16
42684.45 3.1772e-16
42881.46 3.1554e-16
43079.43 3.1372e-16
43278.26 3.1208e-16
43478.01 3.1043e-16
43678.72 3.0877e-16
43880.32 3.0728e-16
44082.85 3.0612e-16
44286.31 3.0495e-16
44490.76 3.0378e-16
44696.11 3.0262e-16
44902.4 3.0192e-16
45109.7 3.0121e-16
45317.9 3.0049e-16
45527.06 2.9978e-16
45737.24 2.994e-16
45948.34 2.9914e-16
46054.25 2.99e-16
46266.81 2.9874e-16
46480.4 2.9847e-16
46694.93 2.9862e-16
46910.45 2.9879e-16
47127.02 2.9896e-16
47344.53 2.9914e-16
47453.66 2.9929e-16
47672.68 2.999e-16
47892.77 3.0052e-16
48113.81 3.0113e-16
48335.88 3.0175e-16
48447.3 3.0222e-16
48670.96 3.0329e-16
48895.59 3.0435e-16
49121.27 3.0543e-16
49348.04 3.0653e-16
49461.79 3.073e-16
49690.08 3.0884e-16
49919.42 3.1038e-16
50149.88 3.1193e-16
50265.48 3.1271e-16
50497.48 3.1463e-16
50730.55 3.1667e-16
50847.54 3.177e-16
50964.74 3.1872e-16
51082.22 3.1975e-16
51199.97 3.2078e-16
51317.99 3.2182e-16
51436.28 3.2308e-16
51554.9 3.2437e-16
51673.74 3.2567e-16
51792.85 3.2696e-16
51912.24 3.2826e-16
52031.9 3.2956e-16
52151.84 3.3087e-16
52272.05 3.3217e-16
52392.6 3.3357e-16
52513.37 3.3516e-16
52634.41 3.3674e-16
52755.74 3.3834e-16
52877.35 3.3993e-16
52999.23 3.4153e-16
53121.46 3.4314e-16
53243.91 3.4474e-16
53366.64 3.4635e-16
53489.65 3.4818e-16
53612.95 3.501e-16
53736.53 3.5202e-16
53860.4 3.5394e-16
53984.61 3.5587e-16
54109.05 3.578e-16
54233.77 3.5974e-16
54358.78 3.6169e-16
54484.09 3.6367e-16
54609.67 3.6595e-16
54735.55 3.6824e-16
54861.78 3.7054e-16
54988.24 3.7284e-16
55115.0 3.7514e-16
55242.04 3.7745e-16
55369.38 3.7977e-16
55497.01 3.8209e-16
55624.99 3.8461e-16
55753.21 3.8731e-16
55881.73 3.9003e-16
56010.54 3.9274e-16
56139.65 3.9547e-16
56269.05 3.982e-16
56398.76 4.0094e-16
56528.82 4.0368e-16
56659.13 4.0643e-16
56789.73 4.0958e-16
56920.63 4.1277e-16
57051.84 4.1597e-16
57183.35 4.1917e-16
57315.22 4.2239e-16
57447.34 4.2561e-16
57579.76 4.2883e-16
57712.48 4.3207e-16
57845.51 4.3546e-16
57978.85 4.3921e-16
58112.5 4.4296e-16
58246.52 4.4672e-16
58380.78 4.5048e-16
58515.35 4.5426e-16
58650.23 4.5805e-16
58785.42 4.6184e-16
58920.93 4.6564e-16
59009.39 2.8863e-16
59318.01 3.1499e-16
59626.63 3.7135e-16
59935.25 4.4069e-16
60243.88 5.3405e-16
60552.49 5.5214e-16
60861.11 5.1576e-16
61169.74 6.1538e-16
61478.36 8.0256e-16
61786.98 1.1116e-15
62095.6 1.2715e-15
62404.22 1.2207e-15
62712.84 1.0557e-15
63021.47 9.2764e-16
63330.09 7.1982e-16
63638.72 6.7375e-16
63947.33 6.2276e-16
64255.95 5.3221e-16
64564.58 4.6514e-16
64873.19 5.0849e-16
65181.81 4.7917e-16
65490.44 4.5397e-16
65799.06 4.7947e-16
66107.68 5.1815e-16
66416.31 4.7241e-16
66724.92 4.7948e-16
67033.54 4.8915e-16
67342.17 4.8432e-16
67650.79 5.1048e-16
67959.42 4.2857e-16
68268.04 4.372e-16
68576.66 4.0593e-16
68885.28 4.1347e-16
69193.9 4.4448e-16
69502.52 5.0543e-16
69811.14 4.8203e-16
70119.76 4.4829e-16
70428.39 4.9786e-16
70737.01 4.7957e-16
71045.63 4.8143e-16
71354.26 5.1135e-16
71662.87 5.2885e-16
71971.5 5.7904e-16
72280.11 6.254e-16
72588.73 6.169e-16
72897.37 6.6994e-16
73205.98 6.4469e-16
73514.6 7.057e-16
73823.23 6.9707e-16
74131.85 7.4484e-16
74440.47 7.7435e-16
74749.09 8.5666e-16
75037.51 9.6849e-16
75057.71 9.9853e-16
75366.34 1.0758e-15
75655.97 1.0911e-15
75674.95 1.1371e-15
76274.45 1.123e-15
76892.92 1.13e-15
77511.39 1.0408e-15
78129.86 9.4212e-16
78748.35 9.2131e-16
79366.82 8.4224e-16
79985.28 7.4326e-16
80603.77 6.7507e-16
81222.24 6.1111e-16
81840.71 5.6978e-16
82459.18 6.2175e-16
83077.65 6.258e-16
83696.14 6.267e-16
84314.6 6.1835e-16
84933.08 6.5218e-16
85551.55 6.9916e-16
86170.03 7.0253e-16
86788.49 6.8349e-16
87406.97 5.9722e-16
88025.45 5.0987e-16
88643.91 4.7739e-16
89262.38 4.7785e-16
89880.86 4.8874e-16
90499.33 4.4428e-16
91117.81 3.7843e-16
91736.28 3.8108e-16
92354.76 3.9621e-16
92973.23 4.2778e-16
93591.7 4.1209e-16
94210.17 4.016e-16
94828.64 3.5904e-16
95447.12 3.621e-16
96065.59 3.7566e-16
96684.06 3.6267e-16
97302.54 3.3569e-16
97921.02 3.3938e-16
98539.49 3.2738e-16
99157.97 3.251e-16
99776.4 3.2848e-16
100394.92 3.1833e-16
101013.35 3.068e-16
101631.89 3.106e-16
102250.32 3.061e-16
102868.84 3.1113e-16
103487.29 3.0714e-16
104105.71 3.132e-16
104724.24 3.6635e-16
105342.67 3.8948e-16
105961.21 3.3043e-16
106579.64 3.0829e-16
107198.07 3.1715e-16
107816.6 3.1033e-16
108435.03 3.0547e-16
109053.56 3.1884e-16
109671.99 3.466e-16
110290.52 3.5672e-16
110908.95 3.9255e-16
111527.38 5.3559e-16
112145.92 7.115e-16
112764.34 6.9933e-16
113382.88 5.7918e-16
114001.31 4.6547e-16
114619.84 4.1972e-16
115238.27 3.7281e-16
115856.7 3.3128e-16
116475.23 3.1065e-16
117093.66 3.1816e-16
117712.19 3.1353e-16
118330.62 3.1233e-16
118949.15 3.116e-16
119567.58 3.2811e-16
120186.01 3.0736e-16
120804.55 2.9652e-16
121422.98 2.8898e-16
122041.51 2.8733e-16
122659.94 2.8808e-16
123278.38 3.03e-16
123896.9 3.0654e-16
124515.33 3.2585e-16
125133.86 3.2823e-16
125752.3 3.4041e-16
126370.82 3.498e-16
126989.26 3.7662e-16
127607.69 4.6984e-16
128226.22 5.1353e-16
128844.65 3.6872e-16
129463.18 2.6533e-16
130081.61 2.4343e-16
130700.04 2.2395e-16
131318.57 2.3363e-16
131937.01 2.3663e-16
132555.54 2.278e-16
133173.96 2.2468e-16
133792.49 2.2335e-16
134410.93 2.2206e-16
135029.37 2.266e-16
135647.9 2.2545e-16
136266.32 2.3122e-16
136884.85 2.2409e-16
137503.29 2.2107e-16
138121.82 2.1672e-16
138740.24 2.1316e-16
139358.68 2.1235e-16
139977.21 2.2044e-16
140595.65 2.2065e-16
141214.16 2.2091e-16
141832.6 2.2522e-16
142451.13 2.2241e-16
143069.57 2.1408e-16
143687.99 1.9948e-16
144306.54 2.0289e-16
144838.71 1.9171e-16
145751.96 1.957e-16
146665.31 1.9804e-16
147578.57 1.9664e-16
148491.81 1.9917e-16
149405.07 1.922e-16
150318.43 2.0715e-16
151231.69 2.0132e-16
152144.93 2.0419e-16
153058.29 1.9461e-16
153971.55 2.2513e-16
154884.79 3.7342e-16
155798.05 4.8538e-16
156711.41 2.9836e-16
157624.67 2.3136e-16
158537.91 2.3291e-16
159451.27 2.2122e-16
160364.53 2.2362e-16
161277.77 2.2686e-16
162191.13 2.3006e-16
163104.39 2.4967e-16
164017.63 2.6332e-16
164930.89 2.8205e-16
165844.26 2.695e-16
166757.49 2.6584e-16
167670.75 2.5554e-16
168584.01 2.7899e-16
169497.37 2.8849e-16
170410.63 3.1255e-16
171323.89 2.8836e-16
172237.24 2.7118e-16
173150.49 2.7701e-16
174063.75 2.8795e-16
174977.1 2.6862e-16
175890.35 2.6923e-16
176803.61 2.6456e-16
177716.85 2.664e-16
178630.21 2.6349e-16
179543.47 2.5012e-16
180456.71 2.3505e-16
181370.06 2.3799e-16
182283.32 2.5347e-16
183196.57 2.3781e-16
184109.92 2.442e-16
185023.18 2.5352e-16
185936.44 2.682e-16
186849.69 3.9015e-16
187763.04 3.9098e-16
188676.3 2.765e-16
189589.55 2.5833e-16
190502.92 2.7282e-16
191416.18 2.5478e-16
192329.41 2.5707e-16
193242.67 2.6536e-16
194156.04 2.4986e-16
195069.28 2.6028e-16
195982.54 2.5448e-16
196895.9 2.3813e-16
197809.14 2.4909e-16
198722.4 2.5341e-16
199635.66 2.703e-16
200549.02 2.8426e-16
201462.26 2.5362e-16
202375.52 2.5316e-16
203288.88 2.7087e-16
204735.1 2.577e-16
206483.11 2.6817e-16
208232.13 2.7756e-16
209982.16 2.6188e-16
211733.06 2.7034e-16
213484.86 2.7672e-16
215237.66 2.5993e-16
216991.38 2.5887e-16
218746.06 2.6989e-16
220501.76 2.7333e-16
222258.34 2.6384e-16
224015.93 2.6995e-16
225774.41 2.7883e-16
227533.87 2.7695e-16
229294.34 2.6329e-16
231055.72 2.6127e-16
232818.09 2.6711e-16
234581.46 2.768e-16
236345.71 2.6851e-16
238111.07 2.6122e-16
239877.22 2.6195e-16
241644.45 2.6437e-16
243412.7 2.6974e-16
245181.84 2.6512e-16
246951.96 2.6104e-16
248723.1 2.6151e-16
250495.12 2.6729e-16
252268.24 2.6858e-16
254042.27 2.6377e-16
255817.39 2.6765e-16
257593.37 2.7417e-16
259370.41 2.796e-16
261148.4 2.7918e-16
262927.39 2.7117e-16
264707.38 2.697e-16
266488.4 2.7132e-16
268270.38 2.7128e-16
270053.35 2.6851e-16
271837.33 2.761e-16
273622.29 2.7303e-16
275408.38 2.6751e-16
277195.34 2.6868e-16
278983.3 2.6665e-16
280772.34 2.7383e-16
282562.42 2.7779e-16
284353.36 2.7743e-16
286145.4 2.7493e-16
287938.46 2.7079e-16
289732.61 2.7237e-16
291527.72 2.7376e-16
293323.77 2.747e-16
295120.97 2.7006e-16
296919.11 2.7542e-16
298718.3 2.8126e-16
300518.52 2.7676e-16
302319.73 2.7351e-16
304122.04 2.7259e-16
305925.34 2.7711e-16
307729.64 2.7792e-16
309535.02 2.8181e-16
311341.53 2.866e-16
313149.0 2.7775e-16
314957.5 2.8189e-16
316766.97 2.8567e-16
318577.64 2.8151e-16
320389.22 2.8408e-16
322201.96 2.9208e-16
324015.62 2.944e-16
325830.47 2.9491e-16
327646.35 2.7932e-16
329463.16 2.8602e-16
331281.12 3.049e-16
333100.17 3.5575e-16
334920.28 3.7361e-16
336741.45 3.1015e-16
338563.64 3.0504e-16
340386.86 2.7956e-16
342211.21 2.982e-16
344036.73 3.1243e-16
345863.13 3.5789e-16
347690.74 4.1387e-16
