# col1 col2
# An Atlas of Galaxy Spectral Energy Distributions from the Ultraviolet to the Mid-Infrared
# Brown et al. (2014)
# http://dx.doi.org/10.5072/03/529D3551F0117
# 
# Column 1 : Restframe Wavelength (Angstrom)
# Column 2 : Flux per unit wavelength (ergs/s/cm^2/Angstrom)
# Column 3 : Observed wavelength (Angstrom)
# Column 4 : Source (0 = model, 1 = Optical Spectrum, 2 = Akari, 3 = Spitzer IRS)
# 
102.05 7.9199e-35
103.94 1.4646e-34
106.12 2.7398e-34
108.09 5.1608e-34
110.1 1.111e-33
113.97 3.3092e-33
117.98 8.9067e-33
121.0 5.1253e-32
124.97 1.2266e-31
127.0 1.8227e-31
127.88 2.2528e-31
130.86 3.942e-31
132.07 5.3176e-31
133.9 7.546e-31
137.02 1.4346e-30
139.89 2.3535e-30
143.15 8.2931e-30
147.16 3.018e-29
150.94 5.3054e-29
155.17 9.241e-29
159.15 1.5839e-28
162.1 2.3266e-28
165.88 3.8612e-28
170.14 6.1619e-28
172.9 8.704e-28
176.93 1.3481e-27
179.8 1.8481e-27
181.88 2.2736e-27
186.12 3.394e-27
190.9 5.4918e-27
194.0 7.3066e-27
198.06 1.044e-26
202.21 1.4816e-26
205.02 1.9086e-26
209.79 2.7524e-26
216.17 4.5679e-26
220.19 6.1904e-26
223.25 7.6158e-26
226.88 1.0179e-25
230.04 1.8438e-25
233.77 3.6452e-25
239.77 6.4079e-25
245.92 8.3506e-25
252.23 1.207e-24
256.92 1.2874e-24
259.89 1.7407e-24
264.12 2.2066e-24
269.03 2.7715e-24
274.03 3.4413e-24
279.12 4.2337e-24
284.31 5.2086e-24
290.27 6.32e-24
295.66 8.0486e-24
301.16 9.3911e-24
308.17 1.2295e-23
318.27 1.7649e-23
327.94 2.425e-23
337.91 3.2338e-23
348.17 4.2434e-23
357.1 5.429e-23
366.26 6.9457e-23
374.8 8.5846e-23
385.3 1.0369e-22
395.18 1.3419e-22
405.32 1.6739e-22
413.8 1.9894e-22
422.47 2.2841e-22
430.32 2.6225e-22
441.36 3.219e-22
450.6 3.7907e-22
460.04 4.3223e-22
469.67 5.0317e-22
479.51 5.9118e-22
489.55 6.6791e-22
499.8 7.8473e-22
505.59 9.1352e-22
511.44 1.6893e-21
519.75 1.9218e-21
529.41 2.2373e-21
540.5 2.4195e-21
550.55 3.5052e-21
559.49 4.5679e-21
569.89 5.6718e-21
580.49 6.0495e-21
589.92 8.0857e-21
599.51 9.1985e-21
610.65 1.1687e-20
620.58 1.4781e-20
630.66 1.7487e-20
639.43 1.9396e-20
649.82 2.4028e-20
657.35 2.7398e-20
664.96 3.0812e-20
675.76 3.394e-20
685.16 3.6368e-20
694.7 5.055e-20
704.36 5.1966e-20
715.8 6.7876e-20
725.76 7.5983e-20
734.17 8.4279e-20
744.38 1.0226e-19
754.74 1.1661e-19
765.23 1.3235e-19
775.88 1.5407e-19
784.86 1.773e-19
795.78 1.9666e-19
805.0 2.1813e-19
814.32 2.3973e-19
825.65 2.7907e-19
835.21 2.4531e-19
844.88 3.294e-19
854.66 3.5952e-19
864.56 4.0805e-19
874.57 4.6208e-19
884.7 5.2932e-19
894.94 5.8711e-19
905.3 6.1904e-19
915.79 1.0226e-18
924.26 7.6863e-18
934.96 1.8018e-17
945.79 3.6704e-17
954.54 5.454e-17
965.59 6.5271e-17
974.53 1.1008e-17
985.81 6.219e-17
994.94 6.8033e-17
1004.14 1.0179e-16
1015.77 1.0086e-16
1025.17 4.3623e-17
1034.65 7.6334e-17
1044.23 1.5231e-16
1053.89 1.555e-16
1066.09 1.2845e-16
1075.96 1.5839e-16
1085.91 1.3053e-16
1095.96 1.7812e-16
1106.1 1.773e-16
1113.77 1.769e-16
1124.07 1.6471e-16
1134.47 2.1464e-16
1144.97 2.0124e-16
1155.57 2.2066e-16
1166.26 2.3535e-16
1174.34 1.7011e-16
1185.21 2.4195e-16
1196.18 1.7089e-16
1204.47 1.2668e-16
1215.61 8.2171e-17
1224.04 1.8018e-16
1235.36 2.8361e-16
1243.93 3.2264e-16
1255.44 3.1748e-16
1264.14 2.7972e-16
1275.84 3.7129e-16
1284.68 3.9969e-16
1293.58 3.2638e-16
1305.55 3.3015e-16
1314.6 4.2239e-16
1323.72 4.1468e-16
1335.96 3.7733e-16
1345.22 4.5784e-16
1354.55 4.5365e-16
1363.94 4.166e-16
1376.56 4.4742e-16
1386.1 4.6315e-16
1395.71 4.1564e-16
1405.38 4.423e-16
1415.12 4.5996e-16
1424.93 4.8163e-16
1434.81 4.8833e-16
1441.43 5.2326e-16
1448.09 5.3668e-16
1454.77 5.3176e-16
1464.86 5.0086e-16
1475.01 5.09e-16
1485.23 5.281e-16
1495.53 5.4792e-16
1505.9 5.3054e-16
1512.85 4.7942e-16
1516.33 5.1846e-16
1523.33 5.1017e-16
1533.89 4.5469e-16
1544.52 5.1135e-16
1555.23 4.9059e-16
1566.01 5.0666e-16
1573.24 5.5045e-16
1584.14 5.8576e-16
1595.13 6.1055e-16
1606.18 6.0634e-16
1613.6 6.1904e-16
1624.78 5.9528e-16
1636.04 6.4375e-16
1643.59 6.6484e-16
1654.99 6.219e-16
1666.46 6.9298e-16
1670.3 6.2477e-16
1678.01 7.0749e-16
1685.76 7.4768e-16
1693.54 7.1239e-16
1705.28 6.9457e-16
1713.15 6.7099e-16
1725.02 6.772e-16
1736.98 7.3235e-16
1745.0 7.2563e-16
1753.05 7.8473e-16
1765.2 7.2731e-16
1773.35 7.5983e-16
1785.64 7.8292e-16
1793.89 8.4473e-16
1806.32 8.4863e-16
1814.66 7.9748e-16
1823.03 8.236e-16
1835.67 8.03e-16
1844.14 7.4768e-16
1856.93 7.6158e-16
1865.5 7.9381e-16
1874.11 8.684e-16
1887.1 8.123e-16
1895.81 7.8835e-16
1904.56 8.4473e-16
1913.35 8.255e-16
1926.61 8.2171e-16
1935.51 8.5255e-16
1944.44 9.0099e-16
1953.42 8.5648e-16
1966.96 9.4562e-16
1976.04 9.7885e-16
1985.16 9.348e-16
1994.32 9.1985e-16
2003.52 9.5437e-16
2012.77 9.348e-16
2026.73 9.8564e-16
2036.08 9.478e-16
2045.48 9.9476e-16
2054.92 9.632e-16
2064.4 9.7885e-16
2073.93 1.0513e-15
2078.71 1.0063e-15
2083.51 1.0464e-15
2093.12 1.0017e-15
2102.79 1.0203e-15
2117.36 1.0392e-15
2127.13 1.0659e-15
2136.95 1.004e-15
2146.82 1.0369e-15
2156.73 1.0832e-15
2166.68 1.061e-15
2176.68 1.061e-15
2186.73 1.0537e-15
2196.82 1.1136e-15
2206.96 1.0933e-15
2217.15 1.0542e-15
2227.38 1.0306e-15
2232.52 1.1071e-15
2242.82 1.0699e-15
2253.17 1.0436e-15
2263.57 1.0733e-15
2274.02 1.1115e-15
2284.52 1.1458e-15
2295.06 1.0947e-15
2305.66 1.1053e-15
2316.3 1.0707e-15
2326.99 8.6664e-16
2332.36 1.0231e-15
2343.12 1.0003e-15
2353.94 1.0822e-15
2364.8 1.0128e-15
2375.72 1.0512e-15
2386.68 9.883e-16
2397.7 1.0595e-15
2403.23 1.0261e-15
2414.32 1.0553e-15
2425.46 1.1158e-15
2436.66 1.0808e-15
2442.28 1.1451e-15
2453.55 1.1352e-15
2464.87 1.1383e-15
2476.25 1.1103e-15
2487.68 1.1525e-15
2493.42 1.0959e-15
2504.93 1.2133e-15
2510.7 1.1093e-15
2516.49 1.1433e-15
2522.29 1.0997e-15
2533.93 1.1155e-15
2545.63 1.1058e-15
2557.38 1.18e-15
2563.27 1.1667e-15
2575.1 1.2336e-15
2586.99 1.2342e-15
2592.95 1.2288e-15
2604.92 1.1987e-15
2616.95 1.1937e-15
2622.98 1.2446e-15
2635.09 1.2742e-15
2647.25 1.3723e-15
2653.35 1.3917e-15
2665.6 1.3024e-15
2677.9 1.3582e-15
2684.08 1.3617e-15
2696.46 1.3191e-15
2702.68 1.3533e-15
2715.16 1.311e-15
2727.69 1.3177e-15
2733.98 1.3834e-15
2746.6 1.2421e-15
2752.93 1.2684e-15
2765.63 1.3137e-15
2772.01 1.3728e-15
2784.81 1.3299e-15
2797.66 1.1118e-15
2804.11 1.1917e-15
2817.05 1.4008e-15
2823.55 1.4471e-15
2836.58 1.4051e-15
2843.12 1.3862e-15
2856.24 1.3648e-15
2862.82 1.4594e-15
2876.04 1.4534e-15
2882.67 1.4673e-15
2895.98 1.4579e-15
2909.34 1.5594e-15
2929.51 1.5322e-15
2949.81 1.5264e-15
2970.26 1.5596e-15
2990.85 1.5753e-15
3011.58 1.6059e-15
3032.46 1.6184e-15
3053.48 1.6272e-15
3067.57 1.6432e-15
3088.84 1.6636e-15
3110.25 1.6688e-15
3131.81 1.6664e-15
3153.51 1.691e-15
3168.07 1.6998e-15
3190.03 1.6549e-15
3212.14 1.7067e-15
3226.97 1.6727e-15
3249.34 1.741e-15
3271.86 1.7872e-15
3286.96 1.7965e-15
3309.75 1.8064e-15
3325.02 1.8242e-15
3332.69 1.829e-15
3340.37 1.7552e-15
3348.07 1.8813e-15
3355.79 1.8013e-15
3363.53 1.7327e-15
3371.28 1.7293e-15
3379.05 1.8407e-15
3386.84 1.8455e-15
3394.65 1.8675e-15
3402.47 1.9248e-15
3410.32 1.8093e-15
3418.18 1.8435e-15
3426.06 1.887e-15
3433.96 1.9449e-15
3441.87 1.8924e-15
3449.81 1.867e-15
3457.76 1.8462e-15
3465.73 1.813e-15
3473.72 1.9122e-15
3481.73 1.8478e-15
3489.75 1.9265e-15
3497.8 1.8746e-15
3505.86 1.9056e-15
3513.94 1.8757e-15
3522.04 1.9511e-15
3530.16 1.8898e-15
3538.3 1.9613e-15
3546.46 1.9892e-15
3554.63 2.0082e-15
3562.83 1.9903e-15
3571.04 1.9101e-15
3579.27 1.8715e-15
3587.52 1.8043e-15
3594.13 2.6213e-15
3596.76 1.5844e-15
3599.4 1.3979e-15
3602.04 2.3314e-15
3604.67 3.8356e-15
3607.31 1.9164e-15
3609.95 9.6658e-16
3612.59 -7.3802e-16
3615.22 3.9849e-16
3617.86 2.8172e-15
3620.5 1.4052e-15
3623.13 9.3875e-16
3625.77 4.8494e-16
3628.41 2.9272e-15
3631.04 2.3764e-15
3633.68 2.667e-15
3636.32 1.2069e-15
3638.96 3.2213e-15
3641.59 3.0684e-15
3644.23 6.9967e-16
3646.87 2.3069e-15
3649.5 2.0374e-16
3652.14 5.3827e-16
3654.78 3.395e-15
3657.42 2.5164e-15
3660.05 1.3259e-15
3662.69 3.0006e-15
3665.33 -4.2684e-16
3667.96 2.1501e-15
3670.6 6.7353e-16
3673.24 1.2622e-15
3675.88 1.4435e-15
3678.51 2.323e-15
3681.15 1.2767e-15
3683.79 1.0735e-15
3686.42 2.0043e-15
3689.06 1.5096e-15
3691.7 1.6093e-15
3694.34 3.9999e-15
3696.97 3.1966e-16
3699.61 2.3056e-15
3702.25 1.2876e-15
3704.88 1.8265e-15
3707.52 2.1032e-15
3710.16 7.9521e-16
3712.8 3.3233e-15
3715.43 1.9666e-15
3718.07 2.6373e-15
3720.71 8.5488e-16
3723.34 1.1617e-15
3725.98 3.8219e-15
3728.62 4.1385e-15
3731.25 8.0283e-15
3733.89 5.5521e-15
3736.53 3.4991e-15
3739.17 2.3696e-15
3741.8 2.5938e-15
3744.44 3.6659e-15
3747.08 2.2135e-15
3749.71 2.5688e-15
3752.35 2.0306e-15
3754.99 9.7267e-16
3757.63 4.9083e-15
3760.26 3.11e-15
3762.9 3.7851e-15
3765.54 2.7505e-15
3768.17 1.8252e-15
3770.81 7.8642e-16
3773.45 2.423e-15
3776.09 2.0616e-15
3778.72 2.5477e-15
3781.36 2.0999e-15
3784.0 2.8143e-15
3786.63 4.2158e-15
3789.27 1.3178e-15
3791.91 2.1441e-15
3794.55 2.2463e-15
3797.18 2.0913e-15
3799.82 8.142e-16
3802.46 2.066e-15
3805.09 1.6386e-15
3807.73 2.1674e-15
3810.37 2.6942e-15
3813.01 2.8921e-15
3815.64 4.6961e-15
3818.28 3.0632e-15
3820.92 2.6696e-15
3823.55 2.1793e-15
3826.19 1.2759e-15
3828.83 2.1527e-15
3831.46 3.321e-15
3834.1 2.1412e-15
3836.74 1.6636e-15
3839.38 8.8066e-16
3842.01 1.8713e-15
3844.65 1.3033e-15
3847.29 2.8604e-15
3849.92 3.9643e-15
3852.56 2.2786e-15
3855.2 3.3976e-15
3857.84 2.3488e-15
3860.47 3.3505e-15
3863.11 3.798e-15
3865.75 3.1861e-15
3868.38 2.7057e-15
3871.02 3.2644e-15
3873.66 3.3585e-15
3876.3 3.9519e-15
3878.93 3.2036e-15
3881.57 3.3627e-15
3884.21 1.5808e-15
3886.84 2.0685e-15
3889.48 1.7238e-15
3892.12 9.1529e-16
3894.76 2.4865e-15
3897.39 3.228e-15
3900.03 2.0995e-15
3902.67 3.3242e-15
3905.3 2.9455e-15
3907.94 4.0704e-15
3910.58 3.0648e-15
3913.22 4.4849e-15
3915.85 2.8338e-15
3918.49 2.5544e-15
3921.13 2.7108e-15
3923.76 3.7164e-15
3926.4 3.9586e-15
3929.04 3.3866e-15
3931.68 2.757e-15
3934.31 2.5621e-15
3936.95 2.4292e-15
3939.59 2.9913e-15
3942.22 2.889e-15
3944.86 2.7107e-15
3947.5 2.9323e-15
3950.13 3.0975e-15
3952.77 2.9312e-15
3955.41 2.8759e-15
3958.05 4.0677e-15
3960.68 3.3472e-15
3963.32 3.4903e-15
3965.96 3.38e-15
3968.59 1.9946e-15
3971.23 2.2341e-15
3973.87 1.5402e-15
3976.51 1.3763e-15
3979.14 2.2025e-15
3981.78 2.7868e-15
3984.42 3.2931e-15
3987.05 3.5205e-15
3989.69 3.3132e-15
3992.33 3.2342e-15
3994.97 2.9799e-15
3997.6 3.1992e-15
4000.24 3.0159e-15
4002.88 3.0724e-15
4005.51 3.3445e-15
4008.15 3.385e-15
4010.79 2.6266e-15
4013.43 3.2551e-15
4016.06 3.3028e-15
4018.7 4.1346e-15
4021.34 4.381e-15
4023.97 4.5278e-15
4026.61 4.8763e-15
4029.25 4.0316e-15
4031.89 3.568e-15
4034.52 3.7604e-15
4037.16 4.521e-15
4039.8 3.8387e-15
4042.43 3.8633e-15
4045.07 4.5204e-15
4047.71 4.4234e-15
4050.34 4.3319e-15
4052.98 3.3431e-15
4055.62 3.6919e-15
4058.26 4.043e-15
4060.89 4.4692e-15
4063.53 4.445e-15
4066.17 3.7899e-15
4068.8 4.0954e-15
4071.44 4.7785e-15
4074.08 4.2527e-15
4076.72 3.9708e-15
4079.35 3.4595e-15
4081.99 3.5802e-15
4084.63 3.4356e-15
4087.26 3.4918e-15
4089.9 3.7522e-15
4092.54 3.2811e-15
4095.18 4.4253e-15
4097.81 2.846e-15
4100.45 3.6743e-15
4103.09 3.5398e-15
4105.72 2.633e-15
4108.36 2.0453e-15
4111.0 2.8034e-15
4113.64 2.72e-15
4116.27 2.8236e-15
4118.91 2.7484e-15
4121.55 3.2098e-15
4124.18 3.0849e-15
4126.82 3.0255e-15
4129.46 3.4993e-15
4132.1 4.3218e-15
4134.73 3.999e-15
4137.37 3.3165e-15
4140.01 4.1094e-15
4142.64 3.465e-15
4145.28 3.1762e-15
4147.92 3.3913e-15
4150.55 4.6358e-15
4153.19 3.8678e-15
4155.83 4.1371e-15
4158.47 3.6926e-15
4161.1 4.0246e-15
4163.74 4.6162e-15
4166.38 3.2462e-15
4169.01 2.9037e-15
4171.65 2.9552e-15
4174.29 3.1463e-15
4176.93 5.1268e-15
4179.56 4.4208e-15
4182.2 7.0559e-15
4184.84 3.7928e-15
4187.47 4.903e-15
4190.11 4.4785e-15
4192.75 3.9953e-15
4195.39 4.0885e-15
4198.02 3.6245e-15
4200.66 4.3537e-15
4203.3 4.2535e-15
4205.93 4.0972e-15
4208.57 3.5823e-15
4211.21 4.0539e-15
4213.85 3.764e-15
4216.48 3.9961e-15
4219.12 3.7701e-15
4221.76 4.8471e-15
4224.39 4.744e-15
4227.03 4.8376e-15
4229.67 4.5455e-15
4232.31 3.7385e-15
4234.94 3.4024e-15
4237.58 3.5151e-15
4240.22 4.1607e-15
4242.85 3.5384e-15
4245.49 5.0018e-15
4248.13 4.2839e-15
4250.76 3.044e-15
4253.4 3.9565e-15
4256.04 3.8765e-15
4258.68 4.3034e-15
4261.31 3.9724e-15
4263.95 5.0123e-15
4266.59 3.4095e-15
4269.22 3.2321e-15
4271.86 4.0754e-15
4274.5 4.5331e-15
4277.14 2.7703e-15
4279.77 3.8485e-15
4282.41 4.192e-15
4285.05 3.7369e-15
4287.68 4.2175e-15
4290.32 4.4265e-15
4292.96 3.2907e-15
4295.6 3.4228e-15
4298.23 3.2956e-15
4300.87 5.1095e-15
4303.51 4.1395e-15
4306.14 3.8385e-15
4308.78 3.4517e-15
4311.42 3.4522e-15
4314.06 3.1149e-15
4316.69 3.482e-15
4319.33 4.2681e-15
4321.97 4.1723e-15
4324.6 4.2633e-15
4327.24 3.1623e-15
4329.88 3.3292e-15
4332.52 3.0923e-15
4335.15 3.2726e-15
4337.79 3.128e-15
4340.43 2.7958e-15
4343.06 3.0467e-15
4345.7 2.4985e-15
4348.34 2.9224e-15
4350.97 3.2563e-15
4353.61 3.0256e-15
4356.25 3.6159e-15
4358.89 4.4405e-15
4361.52 4.3968e-15
4364.16 4.0558e-15
4366.8 4.2341e-15
4369.43 3.4517e-15
4372.07 3.9802e-15
4374.71 4.7941e-15
4377.35 4.1681e-15
4379.98 3.5559e-15
4382.62 3.278e-15
4385.26 3.4264e-15
4387.89 4.0965e-15
4390.53 4.1502e-15
4393.17 3.7347e-15
4395.81 3.2253e-15
4398.44 3.7615e-15
4401.08 4.2966e-15
4403.72 4.262e-15
4406.35 3.9944e-15
4408.99 3.5601e-15
4411.63 3.679e-15
4414.27 4.1339e-15
4416.9 4.5903e-15
4419.54 4.5747e-15
4422.18 4.0231e-15
4424.81 3.8368e-15
4427.45 3.814e-15
4430.09 3.7523e-15
4432.73 3.4257e-15
4435.36 3.5635e-15
4438.0 3.8696e-15
4440.64 3.8958e-15
4443.27 3.8665e-15
4445.91 4.2058e-15
4448.55 4.1193e-15
4451.19 4.6019e-15
4453.82 4.7191e-15
4456.46 4.0574e-15
4459.1 3.8377e-15
4461.73 4.607e-15
4464.37 3.7719e-15
4467.01 4.0939e-15
4469.64 3.8609e-15
4472.28 4.7093e-15
4474.92 4.5907e-15
4477.56 3.9323e-15
4480.19 3.77e-15
4482.83 3.7691e-15
4485.47 4.1704e-15
4488.1 4.2968e-15
4490.74 4.3009e-15
4493.38 4.2413e-15
4496.02 4.4727e-15
4498.65 4.8871e-15
4501.29 4.4646e-15
4503.93 4.1359e-15
4506.56 4.4179e-15
4509.2 4.7685e-15
4511.84 4.1294e-15
4514.48 3.6921e-15
4517.11 4.1213e-15
4519.75 4.6495e-15
4522.39 4.5731e-15
4525.02 4.0208e-15
4527.66 4.2276e-15
4530.3 4.471e-15
4532.94 4.0879e-15
4535.57 3.9755e-15
4538.21 4.6432e-15
4540.85 4.4838e-15
4543.48 3.6248e-15
4546.12 3.9261e-15
4548.76 4.3657e-15
4551.4 4.1754e-15
4554.03 4.3326e-15
4556.67 4.7613e-15
4559.31 4.6495e-15
4561.94 4.99e-15
4564.58 5.013e-15
4567.22 4.4115e-15
4569.85 4.3402e-15
4572.49 4.5068e-15
4575.13 4.6291e-15
4577.77 4.2884e-15
4580.4 4.6888e-15
4583.04 4.9337e-15
4585.68 4.5489e-15
4588.31 4.4491e-15
4590.95 5.0494e-15
4593.59 4.5281e-15
4596.23 4.7503e-15
4598.86 4.7553e-15
4601.5 4.3114e-15
4604.14 4.4055e-15
4606.77 4.436e-15
4609.41 4.4402e-15
4612.05 4.7309e-15
4614.69 4.5456e-15
4617.32 4.4116e-15
4619.96 4.3126e-15
4622.6 4.7635e-15
4625.23 4.7087e-15
4627.87 4.467e-15
4630.51 4.5704e-15
4633.15 4.2794e-15
4635.78 4.5624e-15
4638.42 4.7154e-15
4641.06 4.3925e-15
4643.69 4.0847e-15
4646.33 3.8989e-15
4648.97 3.7936e-15
4651.61 3.9491e-15
4654.24 4.152e-15
4656.88 4.0921e-15
4659.52 3.6718e-15
4662.15 4.1354e-15
4664.79 4.3034e-15
4667.43 4.183e-15
4670.06 4.0791e-15
4672.7 4.1293e-15
4675.34 4.0427e-15
4677.98 4.1166e-15
4680.61 4.6129e-15
4683.25 4.0866e-15
4685.89 4.1466e-15
4688.52 4.6824e-15
4691.16 4.1262e-15
4693.8 4.314e-15
4696.44 4.142e-15
4699.07 4.3136e-15
4701.71 4.1596e-15
4704.35 4.1037e-15
4706.98 4.6225e-15
4709.62 4.5782e-15
4712.26 4.3883e-15
4714.9 4.2282e-15
4717.53 4.3039e-15
4720.17 4.4871e-15
4722.81 4.241e-15
4725.44 4.2673e-15
4728.08 4.522e-15
4730.72 4.032e-15
4733.36 4.0466e-15
4735.99 3.6459e-15
4738.63 4.34e-15
4741.27 4.3728e-15
4743.9 4.7016e-15
4746.54 4.5749e-15
4749.18 4.5149e-15
4751.82 4.5398e-15
4754.45 4.0753e-15
4757.09 4.046e-15
4759.73 4.3605e-15
4762.36 4.4338e-15
4765.0 4.4694e-15
4767.64 4.4913e-15
4770.27 4.8666e-15
4772.91 4.2706e-15
4775.55 4.2956e-15
4778.19 4.311e-15
4780.82 4.2723e-15
4783.46 4.3861e-15
4786.1 3.7693e-15
4788.73 4.1127e-15
4791.37 4.4422e-15
4794.01 4.7325e-15
4796.65 4.3142e-15
4799.28 4.3311e-15
4801.92 4.5274e-15
4804.56 4.466e-15
4807.19 4.1765e-15
4809.83 4.1597e-15
4812.47 4.3737e-15
4815.11 4.1412e-15
4817.74 4.1118e-15
4820.38 4.8665e-15
4823.02 5.0404e-15
4825.65 4.7169e-15
4828.29 4.8802e-15
4830.93 3.9107e-15
4833.57 3.984e-15
4836.2 4.488e-15
4838.84 4.3422e-15
4841.48 4.4912e-15
4844.11 4.4236e-15
4846.75 4.0857e-15
4849.39 3.9845e-15
4852.03 3.957e-15
4854.66 3.8771e-15
4857.3 4.2825e-15
4859.94 4.2859e-15
4862.57 3.8902e-15
4865.21 4.4121e-15
4867.85 4.2991e-15
4870.48 4.6142e-15
4873.12 4.0526e-15
4875.76 3.6424e-15
4878.4 4.6228e-15
4881.03 3.6071e-15
4883.67 4.1582e-15
4886.31 4.0626e-15
4888.94 4.8519e-15
4891.58 4.3975e-15
4894.22 4.3078e-15
4896.86 3.7591e-15
4899.49 3.6898e-15
4902.13 4.0988e-15
4904.77 3.8779e-15
4907.4 3.852e-15
4910.04 4.0146e-15
4912.68 3.8796e-15
4915.32 3.979e-15
4917.95 4.3175e-15
4920.59 4.7836e-15
4923.23 4.9415e-15
4925.86 4.3979e-15
4928.5 4.4123e-15
4931.14 3.9991e-15
4933.78 4.3526e-15
4936.41 4.4474e-15
4939.05 4.3359e-15
4941.69 4.5279e-15
4944.32 4.561e-15
4946.96 3.7575e-15
4949.6 4.4678e-15
4952.24 4.0511e-15
4954.87 4.3682e-15
4957.51 5.1042e-15
4960.15 4.8565e-15
4962.78 4.646e-15
4965.42 4.7555e-15
4968.06 4.9122e-15
4970.69 4.9426e-15
4973.33 4.7906e-15
4975.97 4.7549e-15
4978.61 4.5119e-15
4981.24 4.3037e-15
4983.88 4.432e-15
4986.52 4.9238e-15
4989.15 3.7017e-15
4991.79 5.3922e-15
4994.43 4.0191e-15
4997.07 4.3443e-15
4999.7 4.2905e-15
5002.34 4.5621e-15
5004.98 4.6139e-15
5007.61 4.5303e-15
5010.25 4.6474e-15
5012.89 5.3966e-15
5015.53 4.7491e-15
5018.16 4.3751e-15
5020.8 3.598e-15
5023.44 4.3231e-15
5026.07 4.0013e-15
5028.71 3.7819e-15
5031.35 4.2782e-15
5033.99 4.2336e-15
5036.62 4.3361e-15
5039.26 3.8134e-15
5041.9 4.0655e-15
5044.53 3.9243e-15
5047.17 4.2653e-15
5049.81 3.9883e-15
5052.45 4.1479e-15
5055.08 4.712e-15
5057.72 4.5529e-15
5060.36 4.0572e-15
5062.99 4.6543e-15
5065.63 4.3292e-15
5068.27 4.3229e-15
5070.9 4.7831e-15
5073.54 4.615e-15
5076.18 4.5684e-15
5078.82 4.5228e-15
5081.45 4.2069e-15
5084.09 4.0958e-15
5086.73 4.5501e-15
5089.36 4.2475e-15
5092.0 4.3833e-15
5094.64 4.5353e-15
5097.28 4.561e-15
5099.91 4.3584e-15
5102.55 4.1295e-15
5105.19 4.3646e-15
5107.82 4.3028e-15
5110.46 4.3071e-15
5113.1 4.334e-15
5115.74 4.2276e-15
5118.37 4.6091e-15
5121.01 4.5653e-15
5123.65 4.2559e-15
5126.28 4.6397e-15
5128.92 4.5753e-15
5131.56 4.558e-15
5134.2 4.6631e-15
5136.83 4.4964e-15
5139.47 4.3562e-15
5142.11 4.3351e-15
5144.74 4.479e-15
5147.38 3.6557e-15
5150.02 4.0562e-15
5152.66 4.0317e-15
5155.29 4.5105e-15
5157.93 4.679e-15
5160.57 4.1288e-15
5163.2 4.3681e-15
5165.84 4.2914e-15
5168.48 4.3809e-15
5171.11 4.1372e-15
5173.75 3.4828e-15
5176.39 3.9429e-15
5179.03 3.9188e-15
5181.66 3.7935e-15
5184.3 3.4169e-15
5186.94 3.6412e-15
5189.57 4.0125e-15
5192.21 3.7391e-15
5194.85 3.9739e-15
5197.49 4.1111e-15
5200.12 4.7205e-15
5202.76 4.5048e-15
5205.4 4.3429e-15
5208.03 4.1413e-15
5210.67 4.043e-15
5213.31 3.9822e-15
5215.95 4.2927e-15
5218.58 4.3852e-15
5221.22 4.6444e-15
5223.86 4.3175e-15
5226.49 4.4089e-15
5229.13 4.1865e-15
5231.77 4.0075e-15
5234.41 4.2726e-15
5237.04 3.8315e-15
5239.68 4.1679e-15
5242.32 4.1188e-15
5244.95 3.9102e-15
5247.59 3.9571e-15
5250.23 4.5278e-15
5252.87 4.5113e-15
5255.5 4.0426e-15
5258.14 4.1404e-15
5260.78 4.2454e-15
5263.41 4.4385e-15
5266.05 4.2684e-15
5268.69 4.0679e-15
5271.32 3.9303e-15
5273.96 4.4073e-15
5276.6 4.5131e-15
5279.24 4.4819e-15
5281.87 4.4683e-15
5284.51 4.2602e-15
5287.15 4.0932e-15
5289.78 4.2727e-15
5292.42 4.4153e-15
5295.06 4.542e-15
5297.7 4.6404e-15
5300.33 4.7322e-15
5302.97 4.6927e-15
5305.61 4.509e-15
5308.24 4.3843e-15
5310.88 4.4656e-15
5313.52 4.3486e-15
5316.16 4.6018e-15
5318.79 4.416e-15
5321.43 4.367e-15
5324.07 3.9487e-15
5326.7 4.7199e-15
5329.34 3.9957e-15
5331.98 4.9676e-15
5334.62 4.1529e-15
5337.25 4.339e-15
5339.89 4.7529e-15
5342.53 4.4787e-15
5345.16 4.8291e-15
5347.8 4.5367e-15
5350.44 4.9053e-15
5353.08 4.4435e-15
5355.71 4.7714e-15
5358.35 4.1657e-15
5360.99 5.0262e-15
5363.62 4.3678e-15
5366.26 4.3241e-15
5368.9 4.8941e-15
5371.53 4.5991e-15
5374.17 4.6446e-15
5376.81 4.9495e-15
5379.45 4.6159e-15
5382.08 4.3946e-15
5384.72 4.3401e-15
5387.36 4.6952e-15
5389.99 4.8322e-15
5392.63 4.6313e-15
5395.27 4.0432e-15
5397.91 4.3036e-15
5400.54 4.4506e-15
5403.18 4.594e-15
5405.82 4.2475e-15
5408.45 4.1632e-15
5411.09 4.4071e-15
5413.73 3.641e-15
5416.37 4.2658e-15
5419.0 4.4009e-15
5421.64 4.2987e-15
5424.28 4.2538e-15
5426.91 4.4121e-15
5429.55 4.5391e-15
5432.19 4.499e-15
5434.83 4.5424e-15
5437.46 4.5278e-15
5440.1 4.7169e-15
5442.74 4.6159e-15
5445.37 4.9797e-15
5448.01 4.7757e-15
5450.65 4.5018e-15
5453.29 4.4116e-15
5455.92 4.259e-15
5458.56 4.9061e-15
5461.2 4.8994e-15
5463.83 4.5658e-15
5466.47 4.5266e-15
5469.11 4.6736e-15
5471.74 4.1008e-15
5474.38 4.0015e-15
5477.02 4.914e-15
5479.66 4.8871e-15
5482.29 4.6398e-15
5484.93 4.6286e-15
5487.57 4.4864e-15
5490.2 4.0543e-15
5492.84 4.4871e-15
5495.48 4.5994e-15
5498.12 3.798e-15
5500.75 4.4195e-15
5503.39 4.5047e-15
5506.03 4.8155e-15
5508.66 4.5403e-15
5511.3 4.4939e-15
5513.94 4.2751e-15
5516.58 4.6224e-15
5519.21 4.8278e-15
5521.85 4.4021e-15
5524.49 4.5751e-15
5527.12 4.4037e-15
5529.76 4.5572e-15
5532.4 4.6674e-15
5535.04 4.6408e-15
5537.67 4.5181e-15
5540.31 4.7373e-15
5542.95 4.8328e-15
5545.58 4.7196e-15
5548.22 4.8346e-15
5550.86 4.156e-15
5553.5 4.1325e-15
5556.13 4.3129e-15
5558.77 4.2767e-15
5561.41 4.7184e-15
5564.04 4.8011e-15
5566.68 4.6164e-15
5569.32 4.8414e-15
5571.95 4.1792e-15
5574.59 4.3617e-15
5577.23 4.6616e-15
5579.87 5.0496e-15
5582.5 4.6743e-15
5585.14 4.7562e-15
5587.78 4.7867e-15
5590.41 4.7766e-15
5593.05 4.8509e-15
5595.69 4.8508e-15
5598.33 4.3541e-15
5600.96 4.8099e-15
5603.6 4.5578e-15
5606.24 4.4172e-15
5608.87 4.2738e-15
5611.51 5.3239e-15
5614.15 4.9348e-15
5616.79 5.0032e-15
5619.42 5.0983e-15
5622.06 4.6017e-15
5624.7 4.7282e-15
5627.33 4.7035e-15
5629.97 4.7861e-15
5632.61 3.9739e-15
5635.25 4.6305e-15
5637.88 4.6208e-15
5640.52 4.349e-15
5643.16 4.4687e-15
5645.79 4.6523e-15
5648.43 4.8549e-15
5651.07 4.969e-15
5653.71 4.4149e-15
5656.34 4.5462e-15
5658.98 4.5549e-15
5661.62 3.7784e-15
5664.25 4.6606e-15
5666.89 4.8231e-15
5669.53 4.0457e-15
5672.16 4.6572e-15
5674.8 4.9288e-15
5677.44 4.1114e-15
5680.08 4.5006e-15
5682.71 4.861e-15
5685.35 4.7393e-15
5687.99 4.6902e-15
5690.62 5.2453e-15
5693.26 4.8835e-15
5695.9 5.2792e-15
5698.54 4.9326e-15
5701.17 4.6602e-15
5703.81 4.9042e-15
5706.45 4.1293e-15
5709.08 5.082e-15
5711.72 4.5607e-15
5714.36 4.1849e-15
5717.0 4.5132e-15
5719.63 4.0067e-15
5722.27 4.309e-15
5724.91 4.6193e-15
5727.54 4.8393e-15
5730.18 4.7872e-15
5732.82 4.6991e-15
5735.46 4.6617e-15
5738.09 5.197e-15
5740.73 4.4817e-15
5743.37 5.101e-15
5746.0 4.934e-15
5748.64 5.0298e-15
5751.28 4.7639e-15
5753.92 5.1779e-15
5756.55 5.347e-15
5759.19 5.0083e-15
5761.83 4.9582e-15
5764.46 5.156e-15
5767.1 4.9215e-15
5769.74 5.0417e-15
5772.37 4.4147e-15
5775.01 4.9485e-15
5777.65 4.106e-15
5780.29 4.261e-15
5782.92 4.5763e-15
5785.56 4.4614e-15
5788.2 4.654e-15
5790.83 4.8018e-15
5793.47 5.3061e-15
5796.11 4.8055e-15
5798.75 5.0589e-15
5801.38 5.0315e-15
5804.02 4.3742e-15
5806.66 4.4196e-15
5809.29 4.8703e-15
5811.93 4.6869e-15
5814.57 4.4633e-15
5817.21 4.689e-15
5819.84 4.4616e-15
5822.48 4.5975e-15
5825.12 4.878e-15
5827.75 4.9076e-15
5830.39 4.7955e-15
5833.03 5.0928e-15
5835.67 4.817e-15
5838.3 4.5919e-15
5840.94 4.7677e-15
5843.58 4.7498e-15
5846.21 4.8208e-15
5848.85 5.2265e-15
5851.49 4.5856e-15
5854.13 4.4594e-15
5856.76 4.8699e-15
5859.4 5.0994e-15
5862.04 4.9894e-15
5864.67 4.789e-15
5867.31 4.7246e-15
5869.95 4.6105e-15
5872.58 4.2556e-15
5875.22 4.6413e-15
5877.86 4.8107e-15
5880.5 4.3591e-15
5883.13 4.4518e-15
5885.77 4.2735e-15
5888.41 3.5033e-15
5891.04 2.8867e-15
5893.68 3.1957e-15
5896.32 3.9045e-15
5898.96 3.8259e-15
5901.59 4.5189e-15
5904.23 4.9065e-15
5906.87 4.692e-15
5909.5 5.1777e-15
5912.14 5.5543e-15
5914.78 5.9947e-15
5917.42 5.0023e-15
5920.05 5.1357e-15
5922.69 4.3736e-15
5925.33 4.6169e-15
5927.96 4.2577e-15
5930.6 5.0852e-15
5933.24 4.3274e-15
5935.88 4.6699e-15
5938.51 4.906e-15
5941.15 4.9015e-15
5943.79 4.7089e-15
5946.42 4.64e-15
5949.06 4.8092e-15
5951.7 4.6913e-15
5954.34 4.639e-15
5956.97 4.4826e-15
5959.61 4.3864e-15
5962.25 4.7252e-15
5964.88 4.6223e-15
5967.52 5.0866e-15
5970.16 4.7239e-15
5972.79 4.722e-15
5975.43 4.8282e-15
5978.07 5.0585e-15
5980.71 4.6695e-15
5983.34 4.078e-15
5985.98 4.8412e-15
5988.62 5.0427e-15
5991.25 4.6885e-15
5993.89 5.1158e-15
5996.53 5.0236e-15
5999.17 5.2792e-15
6001.8 5.2399e-15
6004.44 4.8275e-15
6007.08 4.4102e-15
6009.71 4.4105e-15
6012.35 4.7268e-15
6014.99 4.6242e-15
6017.63 5.1542e-15
6020.26 5.1565e-15
6022.9 4.4291e-15
6025.54 4.4488e-15
6028.17 4.8358e-15
6030.81 4.8773e-15
6033.45 5.1072e-15
6036.09 4.7617e-15
6038.72 5.1612e-15
6041.36 4.5647e-15
6044.0 5.0438e-15
6046.63 4.7007e-15
6049.27 5.3766e-15
6051.91 4.5898e-15
6054.55 4.8167e-15
6057.18 4.7779e-15
6059.82 4.7777e-15
6062.46 4.842e-15
6065.09 5.1366e-15
6067.73 4.79e-15
6070.37 5.0435e-15
6073.0 4.7058e-15
6075.64 4.5611e-15
6078.28 4.8785e-15
6080.92 5.1136e-15
6083.55 5.2398e-15
6086.19 4.7243e-15
6088.83 4.3271e-15
6091.46 4.673e-15
6094.1 4.6912e-15
6096.74 4.6773e-15
6099.38 4.6325e-15
6102.01 5.0948e-15
6104.65 4.3757e-15
6107.29 5.01e-15
6109.92 4.5375e-15
6112.56 5.2858e-15
6115.2 5.4045e-15
6117.84 4.3203e-15
6120.47 4.6748e-15
6123.11 4.3263e-15
6125.75 5.1314e-15
6128.38 4.8929e-15
6131.02 5.1181e-15
6133.66 4.8086e-15
6136.3 4.8283e-15
6138.93 4.8332e-15
6141.57 5.0889e-15
6144.21 4.4114e-15
6146.84 4.2851e-15
6149.48 4.4484e-15
6152.12 4.5899e-15
6154.76 4.8235e-15
6157.39 4.8552e-15
6160.03 4.9158e-15
6162.67 4.7242e-15
6165.3 4.4148e-15
6167.94 4.2529e-15
6170.58 4.6214e-15
6173.21 4.7565e-15
6175.85 4.8064e-15
6178.49 4.4444e-15
6181.13 4.2561e-15
6183.76 4.6349e-15
6186.4 4.947e-15
6189.04 4.3666e-15
6191.67 4.9399e-15
6194.31 4.6538e-15
6196.95 4.4105e-15
6199.59 4.5343e-15
6202.22 4.9911e-15
6204.86 4.6896e-15
6207.5 4.9195e-15
6210.13 4.0085e-15
6212.77 4.964e-15
6215.41 4.9942e-15
6218.05 4.8628e-15
6220.68 4.4077e-15
6223.32 4.6471e-15
6225.96 4.6034e-15
6228.59 4.6943e-15
6231.23 5.0849e-15
6233.87 4.4844e-15
6236.51 4.5416e-15
6239.14 4.0646e-15
6241.78 4.6381e-15
6244.42 4.75e-15
6247.05 4.7032e-15
6249.69 4.6475e-15
6252.33 4.4113e-15
6254.97 4.3595e-15
6257.6 4.6865e-15
6260.24 4.7074e-15
6262.88 5.0998e-15
6265.51 5.5491e-15
6268.15 5.3026e-15
6270.79 6.2853e-15
6273.42 5.9438e-15
6276.06 5.0594e-15
6278.7 4.4555e-15
6281.34 4.6207e-15
6283.97 4.4656e-15
6286.61 4.5229e-15
6289.25 4.0041e-15
6291.88 3.9659e-15
6294.52 4.7399e-15
6297.16 4.5973e-15
6299.8 5.3839e-15
6302.43 5.6047e-15
6305.07 5.6818e-15
6307.71 5.1767e-15
6310.34 4.7448e-15
6312.98 4.5618e-15
6315.62 4.3313e-15
6318.26 4.3528e-15
6320.89 4.3899e-15
6323.53 4.636e-15
6326.17 4.2582e-15
6328.8 4.4616e-15
6331.44 4.3397e-15
6334.08 4.3937e-15
6336.72 4.7617e-15
6339.35 4.5634e-15
6341.99 4.3762e-15
6344.63 4.5772e-15
6347.26 4.5878e-15
6349.9 4.4764e-15
6352.54 4.5007e-15
6355.18 4.4114e-15
6357.81 4.5173e-15
6360.45 4.4993e-15
6363.09 4.7891e-15
6365.72 4.9452e-15
6368.36 4.9381e-15
6371.0 4.9315e-15
6373.63 4.7408e-15
6376.27 5.0941e-15
6378.91 5.148e-15
6381.55 4.9223e-15
6384.18 4.9203e-15
6386.82 5.302e-15
6389.46 4.9061e-15
6392.09 4.4352e-15
6394.73 5.0001e-15
6397.37 5.0693e-15
6400.01 4.955e-15
6402.64 4.7766e-15
6405.28 4.6816e-15
6407.92 4.9695e-15
6410.55 4.6679e-15
6413.19 4.3647e-15
6415.83 5.1548e-15
6418.47 4.669e-15
6421.1 5.0538e-15
6423.74 4.5397e-15
6426.38 4.7995e-15
6429.01 4.3283e-15
6431.65 5.0367e-15
6434.29 5.0129e-15
6436.93 4.7676e-15
6439.56 5.1785e-15
6442.2 5.4533e-15
6444.84 5.2589e-15
6447.47 4.8385e-15
6450.11 4.4132e-15
6452.75 4.8827e-15
6455.39 5.0559e-15
6458.02 4.7627e-15
6460.66 4.6141e-15
6463.3 4.951e-15
6465.93 4.4695e-15
6468.57 4.8648e-15
6471.21 5.2182e-15
6473.84 4.7256e-15
6476.48 5.0392e-15
6479.12 5.4742e-15
6481.76 5.3721e-15
6484.39 4.9216e-15
6487.03 4.7347e-15
6489.67 4.7528e-15
6492.3 4.9678e-15
6494.94 4.8193e-15
6497.58 4.6296e-15
6500.22 4.5146e-15
6502.85 4.0623e-15
6505.49 4.3981e-15
6508.13 4.74e-15
6510.76 4.7504e-15
6513.4 5.0469e-15
6516.04 4.5373e-15
6518.68 5.2078e-15
6521.31 5.177e-15
6523.95 4.356e-15
6526.59 4.4891e-15
6529.22 4.3948e-15
6531.86 4.7318e-15
6534.5 4.8677e-15
6537.14 4.7097e-15
6539.77 4.9641e-15
6542.41 5.4621e-15
6545.05 5.8645e-15
6547.68 6.444e-15
6558.35 4.438e-15
6573.47 3.9083e-15
6588.62 4.5581e-15
6603.81 4.63e-15
6619.04 4.6923e-15
6634.29 4.6901e-15
6649.59 4.6449e-15
6664.92 4.6749e-15
6680.28 4.6835e-15
6695.68 4.6598e-15
6711.12 4.6149e-15
6726.59 4.5915e-15
6742.09 4.6531e-15
6757.64 4.5346e-15
6773.21 4.5638e-15
6788.83 4.5722e-15
6804.48 4.6016e-15
6820.16 4.5994e-15
6835.89 4.6078e-15
6851.65 4.595e-15
6867.44 4.4882e-15
6883.27 4.5484e-15
6899.14 4.5777e-15
6915.04 4.5649e-15
6930.98 4.5837e-15
6946.96 4.6238e-15
6962.98 4.5687e-15
6979.03 4.662e-15
6995.11 4.5852e-15
7011.24 4.5096e-15
7027.4 4.6443e-15
7043.6 4.5994e-15
7059.84 4.5655e-15
7076.11 4.4286e-15
7092.43 4.4468e-15
7108.77 4.4651e-15
7125.16 4.4423e-15
7141.59 4.4298e-15
7158.05 4.397e-15
7174.55 4.3847e-15
7191.09 4.2532e-15
7207.67 4.2217e-15
7224.29 4.4593e-15
7240.94 4.3555e-15
7257.63 4.3935e-15
7274.36 4.4935e-15
7291.13 4.4092e-15
7307.94 4.4682e-15
7324.78 4.4556e-15
7341.67 4.5674e-15
7358.59 4.5441e-15
7375.56 4.5942e-15
7392.56 4.508e-15
7409.6 4.6425e-15
7426.68 4.5763e-15
7443.8 4.6696e-15
7460.96 4.6887e-15
7478.16 4.6006e-15
7495.4 4.6728e-15
7512.68 4.6062e-15
7530.0 4.6143e-15
7547.35 4.6652e-15
7564.76 4.5987e-15
7582.19 4.628e-15
7599.67 4.5306e-15
7617.19 4.4969e-15
7634.75 4.578e-15
7652.35 4.5231e-15
7669.99 4.2874e-15
7687.67 4.4253e-15
7705.39 4.4127e-15
7723.15 4.3497e-15
7740.96 4.3976e-15
7758.8 4.2852e-15
7776.69 4.3523e-15
7794.62 4.3299e-15
7812.59 4.4079e-15
7830.59 4.4564e-15
7848.65 4.4436e-15
7866.74 4.4924e-15
7884.87 4.3977e-15
7903.05 4.2853e-15
7921.27 4.2338e-15
7939.53 4.2313e-15
7957.83 4.2581e-15
7976.18 4.3548e-15
7994.56 4.3024e-15
8012.99 4.3497e-15
8031.47 4.3672e-15
8049.98 4.4355e-15
8068.54 4.4329e-15
8087.14 4.3694e-15
8105.78 4.2576e-15
8124.47 4.3242e-15
8143.19 4.3117e-15
8161.97 4.2597e-15
8180.78 4.4169e-15
8199.64 4.3537e-15
8218.54 4.3913e-15
8237.49 3.8135e-15
8256.48 4.4675e-15
8275.51 4.475e-15
8294.59 4.3105e-15
8313.71 4.1425e-15
8332.87 4.3251e-15
8352.08 4.3324e-15
8371.34 4.3297e-15
8390.63 4.2774e-15
8409.98 4.3044e-15
8429.36 4.3116e-15
8448.79 4.1626e-15
8468.27 4.2471e-15
8487.79 4.2935e-15
8507.36 3.3538e-15
8526.97 4.2098e-15
8546.63 3.8369e-15
8566.33 4.2141e-15
8586.08 4.3095e-15
8605.87 4.0008e-15
8625.71 4.2449e-15
8645.59 4.2913e-15
8665.53 3.9383e-15
8685.5 3.9539e-15
8705.52 4.195e-15
8725.59 4.2899e-15
8745.71 4.1131e-15
8765.87 4.0076e-15
8786.07 4.2913e-15
8806.33 4.2984e-15
8826.63 4.3153e-15
8846.97 4.1469e-15
8867.37 3.9485e-15
8887.81 3.9641e-15
8908.3 4.1386e-15
8928.84 4.1358e-15
8949.42 4.1616e-15
8970.05 4.1207e-15
8990.72 4.0427e-15
9011.45 3.7877e-15
9032.23 3.7246e-15
9053.05 4.313e-15
9073.92 4.2216e-15
9094.83 4.0474e-15
9115.8 3.9799e-15
9136.82 4.155e-15
9157.88 4.133e-15
9178.99 3.9442e-15
9200.15 4.1272e-15
9221.36 3.8847e-15
9242.61 3.6902e-15
9263.92 4.0433e-15
9285.28 4.1728e-15
9306.68 3.7508e-15
9328.13 4.1287e-15
9349.64 4.1162e-15
9371.19 4.0755e-15
9392.79 4.1008e-15
9414.45 4.0231e-15
9436.15 4.1138e-15
9457.9 4.0731e-15
9479.7 4.1267e-15
9501.56 4.0299e-15
9523.46 3.9716e-15
9545.41 3.7381e-15
9567.42 3.9658e-15
9589.47 4.0739e-15
9611.58 4.0428e-15
9633.73 4.0491e-15
9655.94 4.0275e-15
9678.21 4.0152e-15
9700.52 4.0493e-15
9722.88 3.9815e-15
9745.29 3.9603e-15
9767.75 3.9755e-15
9790.27 3.9361e-15
9812.85 3.9878e-15
9835.47 3.9573e-15
9858.14 3.9633e-15
9880.86 3.9421e-15
9903.64 3.9209e-15
9926.47 3.936e-15
9949.35 3.9329e-15
9972.29 3.9298e-15
9995.28 3.9087e-15
10018.32 3.8344e-15
10064.56 3.7671e-15
10134.33 3.8812e-15
10181.1 3.8572e-15
10228.09 3.8599e-15
10275.31 3.8644e-15
10299.0 3.8555e-15
10490.47 3.7591e-15
10710.13 3.6399e-15
10909.25 3.484e-15
11112.07 3.4205e-15
11292.63 3.3658e-15
11502.57 3.3658e-15
11689.47 3.2967e-15
11906.79 3.2069e-15
12100.26 3.1702e-15
12296.87 3.1339e-15
12496.68 3.0696e-15
12699.75 3.0136e-15
12906.1 2.9654e-15
13085.64 2.9315e-15
13298.27 2.8647e-15
13514.34 2.8254e-15
13702.35 2.7867e-15
13892.95 2.7107e-15
14086.23 2.6247e-15
14315.11 2.5947e-15
14514.25 2.6067e-15
14716.17 2.5473e-15
14886.57 2.5768e-15
15093.67 2.5828e-15
15303.64 2.6187e-15
15516.54 2.6127e-15
15696.22 2.5709e-15
15914.56 2.4893e-15
16098.85 2.5124e-15
16285.27 2.5182e-15
16511.82 2.4836e-15
16703.02 2.4836e-15
16896.42 2.4495e-15
17092.07 2.4215e-15
17290.0 2.3339e-15
17490.21 2.2913e-15
17692.72 2.2186e-15
17897.6 2.1532e-15
18104.85 2.061e-15
18314.5 2.0234e-15
18483.94 1.9728e-15
18697.98 1.8927e-15
18914.5 1.8624e-15
19089.5 1.8411e-15
19310.55 1.7951e-15
19489.24 1.7301e-15
19714.92 1.6947e-15
19897.33 1.6561e-15
20081.44 1.6334e-15
20313.98 1.5889e-15
20501.93 1.5743e-15
20691.64 1.5456e-15
20883.08 1.5173e-15
21076.32 1.5e-15
21320.38 1.4726e-15
21517.64 1.4491e-15
21716.75 1.4063e-15
21917.7 1.3934e-15
22120.49 1.3579e-15
22325.18 1.3181e-15
22479.92 1.2851e-15
22687.93 1.2471e-15
22897.84 1.1292e-15
23109.73 1.1132e-15
23323.57 9.8922e-16
23485.23 9.3331e-16
23702.54 9.367e-16
23921.84 8.6513e-16
24087.68 8.3491e-16
24310.54 8.2028e-16
24364.17 4.017e-16
24457.0 6.5214e-16
24549.82 7.1226e-16
24642.55 5.8883e-16
24735.38 4.5116e-16
24828.11 4.7446e-16
24920.93 5.7276e-16
25013.76 6.7779e-16
25106.49 6.7379e-16
25199.32 6.4718e-16
25292.14 6.1732e-16
25384.87 6.2041e-16
25477.7 5.806e-16
25570.43 6.3069e-16
25663.25 6.5492e-16
25756.08 7.123e-16
25848.81 7.1379e-16
25941.64 7.2023e-16
26034.46 7.3404e-16
26127.2 7.3318e-16
26220.02 6.8563e-16
26312.75 6.9615e-16
26405.58 6.9882e-16
26498.4 7.3784e-16
26591.13 6.6337e-16
26683.96 6.3655e-16
26776.79 5.954e-16
26869.52 6.2811e-16
26962.34 6.2688e-16
27055.07 6.4507e-16
27147.9 6.751e-16
27240.72 6.5911e-16
27333.45 6.486e-16
27426.28 5.7181e-16
27519.11 5.797e-16
27611.84 5.574e-16
27704.66 5.8568e-16
27797.39 6.1172e-16
27890.22 6.0062e-16
27983.05 5.4601e-16
28075.78 4.453e-16
28168.6 3.7258e-16
28261.43 3.9823e-16
28354.16 3.8384e-16
28446.99 4.4166e-16
28539.71 4.1963e-16
28632.54 4.7023e-16
28725.37 4.3755e-16
28818.1 3.9696e-16
28910.92 4.4538e-16
29003.75 5.162e-16
29096.48 5.8558e-16
29189.31 5.0329e-16
29282.04 4.3086e-16
29374.86 4.3138e-16
29467.69 4.668e-16
29560.42 4.6115e-16
29653.24 4.6529e-16
29746.07 4.281e-16
29838.8 4.9124e-16
29931.63 4.805e-16
30024.36 5.2359e-16
30117.18 4.6044e-16
30210.01 3.9687e-16
30302.74 3.831e-16
30395.57 4.0526e-16
30488.39 4.1397e-16
30581.12 3.743e-16
30673.95 3.5005e-16
30766.68 3.8635e-16
30859.5 4.1443e-16
30952.33 4.157e-16
31045.06 3.952e-16
31137.89 3.8788e-16
31230.71 3.8824e-16
31323.44 4.082e-16
31416.27 3.9353e-16
31509.0 3.7297e-16
31601.83 3.8874e-16
31694.65 4.2068e-16
31787.38 4.4218e-16
31880.21 3.9854e-16
31973.04 3.6681e-16
32065.76 3.3513e-16
32158.59 3.3834e-16
32251.32 4.5118e-16
32344.15 6.0801e-16
32436.97 7.3815e-16
32529.7 6.4792e-16
32622.53 6.3948e-16
32715.36 7.0194e-16
32808.09 8.8319e-16
32900.91 8.041e-16
32993.64 6.5162e-16
33086.47 5.2554e-16
33179.29 5.4732e-16
33272.02 5.7857e-16
33364.85 5.0166e-16
33457.68 4.674e-16
33550.41 4.3424e-16
33643.23 4.3222e-16
33735.96 4.6705e-16
33828.79 4.8008e-16
33921.62 5.094e-16
34014.35 4.2439e-16
34107.17 3.4051e-16
34200.0 3.2536e-16
34292.73 4.1511e-16
34385.56 4.4243e-16
34478.29 4.5944e-16
34571.11 3.8095e-16
34663.94 3.7454e-16
34756.67 3.6294e-16
34849.49 3.7862e-16
34942.32 4.1194e-16
35035.05 4.0365e-16
35127.87 3.8397e-16
35220.61 3.4715e-16
35313.43 3.3392e-16
35406.26 3.7922e-16
35498.99 3.8063e-16
35591.81 3.5405e-16
35684.64 3.1857e-16
35777.37 3.2854e-16
35870.2 3.2473e-16
35962.93 3.1472e-16
36055.75 2.902e-16
36148.58 2.872e-16
36241.31 2.8648e-16
36334.14 3.0691e-16
36426.96 3.2034e-16
36519.69 2.9118e-16
36612.52 3.0209e-16
36705.25 3.1455e-16
36798.08 3.4109e-16
36890.9 3.2808e-16
36983.63 3.3198e-16
37076.46 3.0368e-16
37169.28 3.3205e-16
37262.01 3.2024e-16
37354.84 3.6324e-16
37447.57 3.3253e-16
37540.4 2.8513e-16
37633.22 2.6458e-16
37725.95 2.4597e-16
37818.78 2.8092e-16
37911.61 2.609e-16
38004.34 2.655e-16
38097.16 2.723e-16
38189.89 2.8074e-16
38282.72 2.9573e-16
38375.55 3.141e-16
38468.27 3.0765e-16
38561.1 2.9659e-16
38653.92 2.6117e-16
38746.66 2.9542e-16
38839.48 2.687e-16
38932.31 3.0085e-16
39025.04 2.1199e-16
39117.86 1.8978e-16
39210.59 1.665e-16
39303.42 2.2737e-16
39396.25 2.9258e-16
39488.98 2.6728e-16
39581.8 2.5345e-16
39674.53 2.2524e-16
39767.36 2.0335e-16
39860.19 2.3841e-16
39952.91 2.0633e-16
40045.74 2.5388e-16
40138.57 2.5316e-16
40231.3 3.1825e-16
40324.12 2.9279e-16
40416.86 3.2259e-16
40509.68 2.7045e-16
40602.51 3.0026e-16
40695.24 2.4321e-16
40788.06 2.8543e-16
40880.89 3.0916e-16
40973.62 2.8399e-16
41066.45 2.7874e-16
41159.17 2.7162e-16
41252.0 3.1983e-16
41344.83 3.1183e-16
41437.56 2.9912e-16
41530.38 2.863e-16
41623.21 2.8514e-16
41715.94 2.9538e-16
41808.76 2.5279e-16
41901.5 2.6943e-16
41994.32 2.4544e-16
42087.15 3.0358e-16
42179.88 2.342e-16
42272.7 2.2152e-16
42365.53 1.8563e-16
42458.26 2.0246e-16
42551.09 2.036e-16
42643.82 2.0675e-16
42736.65 2.4926e-16
42829.47 2.3153e-16
42922.2 2.2037e-16
43015.03 2.0194e-16
43107.85 1.9062e-16
43200.58 2.0581e-16
43293.41 2.2299e-16
43386.14 2.5321e-16
43478.97 2.3998e-16
43571.79 1.7152e-16
43664.52 1.5276e-16
43757.35 1.5124e-16
43850.18 1.893e-16
43942.9 2.0193e-16
44035.73 1.9564e-16
44128.46 2.0031e-16
44221.29 2.2002e-16
44314.11 2.5023e-16
44406.85 2.3915e-16
44499.67 1.974e-16
44592.5 1.8375e-16
44685.22 1.8647e-16
44778.05 2.2938e-16
44870.78 2.3555e-16
44963.61 2.4168e-16
45056.43 2.3766e-16
45149.16 2.205e-16
45241.99 2.1871e-16
45334.82 1.9424e-16
45427.54 1.8489e-16
45520.37 1.6929e-16
45613.1 1.453e-16
45705.93 1.4361e-16
45798.75 1.4559e-16
45891.49 1.6609e-16
45984.31 1.798e-16
46077.14 1.8288e-16
46169.87 2.0537e-16
46262.69 1.8797e-16
46355.43 1.9466e-16
46448.25 1.7472e-16
46541.08 1.9479e-16
46633.81 1.964e-16
46726.64 2.0913e-16
46819.46 1.9166e-16
46912.19 1.8542e-16
47005.02 2.0001e-16
47097.75 2.2818e-16
47190.57 2.7011e-16
47283.4 2.37e-16
47376.13 2.0217e-16
47468.95 1.6213e-16
47561.78 1.0602e-16
47944.61 1.8488e-16
48424.06 2.0782e-16
48908.3 2.3099e-16
49397.38 2.5439e-16
49891.35 2.7802e-16
50030.69 2.8468e-16
50320.67 3.3156e-16
50610.66 3.5288e-16
50900.64 3.4468e-16
51190.63 3.4196e-16
51480.71 3.8485e-16
51770.7 4.1818e-16
52060.68 4.8772e-16
52350.66 5.6716e-16
52640.65 4.8842e-16
52930.73 5.0879e-16
53220.72 5.8466e-16
53510.71 5.459e-16
53800.69 4.5566e-16
54090.68 4.4464e-16
54380.76 4.5107e-16
54670.74 4.9812e-16
54960.73 5.7194e-16
55250.72 5.724e-16
55540.7 5.4598e-16
55830.79 5.7564e-16
56120.77 6.3318e-16
56410.75 6.8985e-16
56700.74 7.1259e-16
56990.73 6.9997e-16
57280.81 6.5606e-16
57570.79 5.6581e-16
57860.78 4.9029e-16
58150.77 4.5473e-16
58440.75 4.5882e-16
58730.83 4.8064e-16
59020.82 4.5725e-16
59310.8 4.2913e-16
59600.79 4.8149e-16
59890.78 5.6413e-16
60180.86 6.2362e-16
60470.84 6.3866e-16
60760.83 6.6448e-16
61050.81 7.7822e-16
61340.8 1.0191e-15
61630.88 1.4681e-15
61920.87 1.8177e-15
62210.85 1.8261e-15
62500.84 1.5919e-15
62790.83 1.36e-15
63080.9 1.1535e-15
63370.89 1.0048e-15
63660.87 9.2762e-16
63950.87 8.1822e-16
64240.85 7.4708e-16
64530.93 7.0001e-16
64820.92 6.6482e-16
65110.91 6.601e-16
65400.88 6.4616e-16
65690.88 6.6102e-16
65980.96 6.9021e-16
66270.94 7.3349e-16
66560.93 7.1854e-16
66850.92 7.206e-16
67140.9 7.0026e-16
67430.98 6.7317e-16
67720.97 6.539e-16
68010.95 6.0991e-16
68300.94 6.3495e-16
68590.92 6.7905e-16
68881.0 7.754e-16
69170.99 8.1824e-16
69460.98 8.3425e-16
69750.96 9.7291e-16
70040.95 9.3613e-16
70331.03 8.0831e-16
70621.01 8.4851e-16
70911.0 8.4816e-16
71200.99 8.2215e-16
71490.97 7.1343e-16
71781.05 8.4115e-16
72071.04 8.3101e-16
72361.02 8.4311e-16
72651.01 8.8183e-16
73230.98 1.0267e-15
73811.05 1.2256e-15
74391.02 1.4712e-15
74970.99 1.7426e-15
75551.06 1.9892e-15
76131.03 2.0974e-15
76711.1 2.023e-15
77291.07 1.9603e-15
77871.04 1.9513e-15
78451.1 1.8516e-15
79031.08 1.6795e-15
79611.05 1.4769e-15
80191.11 1.3089e-15
80771.09 1.1365e-15
81351.06 1.0004e-15
81931.13 9.1965e-16
82511.1 8.6592e-16
83091.17 8.3292e-16
83671.14 7.9369e-16
84251.12 7.5449e-16
84831.18 7.5844e-16
85411.15 7.6208e-16
85991.13 7.4241e-16
86571.18 6.508e-16
87151.16 5.2416e-16
87731.13 4.0501e-16
88311.19 3.159e-16
88891.17 2.5407e-16
89471.24 2.1353e-16
90051.2 1.8943e-16
90631.18 1.6091e-16
91211.24 1.4067e-16
91791.21 1.3308e-16
92371.19 1.3051e-16
92951.26 1.1627e-16
93531.23 1.1686e-16
94111.19 1.061e-16
94691.27 9.9563e-17
95271.24 9.7664e-17
95851.31 9.8308e-17
96431.28 1.2572e-16
97011.25 1.1655e-16
97591.32 8.2498e-17
98171.29 7.782e-17
98751.26 7.5881e-17
99331.32 6.97e-17
99911.3 7.2199e-17
100491.27 7.0586e-17
101071.33 6.7776e-17
101651.31 6.9833e-17
102231.38 7.0934e-17
102811.34 7.3408e-17
103391.32 7.6342e-17
103971.39 8.0475e-17
104551.36 8.5886e-17
105131.33 9.6541e-17
105711.39 1.0484e-16
106291.37 1.0676e-16
106871.35 1.0818e-16
107451.4 1.0837e-16
108031.38 1.0901e-16
108611.45 1.1099e-16
109191.41 1.2554e-16
109771.39 1.5726e-16
110351.46 1.7943e-16
110931.42 2.189e-16
111511.4 3.5429e-16
112091.46 5.4905e-16
112671.43 5.6932e-16
113251.4 4.8516e-16
113831.47 4.0095e-16
114411.44 3.3989e-16
114991.52 3.0178e-16
115571.49 2.6985e-16
116151.45 2.5024e-16
116731.53 2.402e-16
117311.5 2.3931e-16
117891.47 2.4147e-16
118471.53 2.5676e-16
119051.51 2.8564e-16
119631.48 3.0662e-16
120211.54 3.1094e-16
120791.52 3.1514e-16
121371.58 3.1683e-16
121951.55 3.28e-16
122531.53 3.7187e-16
123111.59 3.9935e-16
123691.56 3.9977e-16
124271.54 4.1903e-16
124851.61 4.5242e-16
125431.57 4.8326e-16
126011.54 5.1767e-16
126591.61 5.4348e-16
127171.58 5.7958e-16
127751.55 7.7327e-16
128331.62 8.0382e-16
128911.59 4.7989e-16
129491.66 4.0257e-16
130071.63 3.8264e-16
130651.6 3.7511e-16
131231.68 3.7674e-16
131811.64 3.738e-16
132391.61 3.6895e-16
132971.69 3.6897e-16
133551.65 3.6763e-16
134131.62 3.6063e-16
134711.7 3.6231e-16
135291.66 3.682e-16
135871.74 3.6519e-16
136451.71 3.4245e-16
137031.67 3.2629e-16
137611.75 3.1811e-16
138191.72 3.0375e-16
138771.68 2.9483e-16
139789.7 3.3602e-16
140601.75 3.3901e-16
141413.78 3.465e-16
142225.81 3.5169e-16
143037.76 3.4181e-16
143849.79 3.3528e-16
144661.82 3.2763e-16
145473.77 3.2508e-16
146285.8 3.2155e-16
147097.84 3.1562e-16
147909.78 3.1362e-16
148721.81 3.0871e-16
149533.86 3.044e-16
150345.81 2.9495e-16
151157.84 2.9099e-16
151969.87 2.845e-16
152781.8 2.7842e-16
153593.85 2.7147e-16
154405.88 2.7457e-16
155217.92 3.1414e-16
156029.86 2.9271e-16
156841.91 2.6074e-16
157653.93 2.5051e-16
158465.89 2.4185e-16
159277.91 2.4073e-16
160089.94 2.3016e-16
160901.9 2.2342e-16
161713.92 2.2288e-16
162525.97 2.2519e-16
163337.9 2.5056e-16
164149.94 2.8281e-16
164961.98 2.7394e-16
165773.91 2.573e-16
166585.96 2.5618e-16
167397.99 2.5735e-16
168210.02 2.5814e-16
169021.97 2.6781e-16
169834.02 3.0728e-16
170646.03 3.2015e-16
171457.99 2.7973e-16
172270.03 2.62e-16
173082.06 2.5502e-16
173894.0 2.5628e-16
174706.02 2.4053e-16
175518.07 2.2737e-16
176330.02 2.2347e-16
177142.05 2.2403e-16
177954.08 2.2061e-16
178766.01 2.1837e-16
179578.06 2.1282e-16
180390.11 2.0715e-16
181202.14 2.0594e-16
182014.07 2.0328e-16
182826.12 2.0022e-16
183638.14 2.0213e-16
184450.1 2.0395e-16
185262.13 2.141e-16
186074.16 2.241e-16
186886.11 2.64e-16
187698.16 2.4034e-16
188510.18 2.3452e-16
189322.12 2.3427e-16
190134.15 2.3723e-16
190946.19 2.4282e-16
191758.15 2.4973e-16
192570.16 2.5708e-16
193382.21 2.6256e-16
194194.25 2.6861e-16
195006.18 2.7622e-16
195818.22 2.7921e-16
197442.2 2.8393e-16
199066.27 3.0745e-16
200690.26 3.2841e-16
202314.22 3.3512e-16
203938.29 3.4852e-16
205562.27 3.7132e-16
207186.35 3.7892e-16
208810.33 3.8874e-16
210434.31 4.0659e-16
212058.39 4.2421e-16
213682.37 4.3817e-16
215306.33 4.4799e-16
216930.4 4.6669e-16
218554.39 4.8383e-16
220178.46 4.9376e-16
221802.43 5.0161e-16
223426.41 5.1945e-16
225050.49 5.356e-16
226674.47 5.4758e-16
228298.45 5.6041e-16
229922.5 5.7646e-16
231546.49 5.9483e-16
233170.56 6.1498e-16
234794.54 6.4014e-16
236418.52 6.7004e-16
238042.6 7.049e-16
239666.58 7.3408e-16
241290.55 7.6641e-16
242914.64 7.9785e-16
244538.61 8.2463e-16
246162.67 8.5415e-16
247786.64 8.8133e-16
249410.62 9.1458e-16
251034.7 9.4325e-16
252658.68 9.6909e-16
254282.66 9.9769e-16
255906.73 1.0305e-15
257530.7 1.0657e-15
259154.77 1.0949e-15
260778.75 1.1165e-15
262402.76 1.1411e-15
264026.82 1.1669e-15
265650.77 1.1778e-15
267274.75 1.2104e-15
268898.85 1.2276e-15
270522.82 1.2578e-15
272146.89 1.2713e-15
273770.87 1.3005e-15
275394.85 1.3356e-15
277018.91 1.3616e-15
278642.89 1.3908e-15
280266.87 1.4171e-15
281890.94 1.4687e-15
283514.91 1.4935e-15
285138.98 1.5273e-15
286762.99 1.5599e-15
288386.97 1.5872e-15
290011.03 1.6232e-15
291635.01 1.6476e-15
293258.99 1.6612e-15
294883.06 1.6983e-15
296507.03 1.7251e-15
298131.1 1.7434e-15
299755.08 1.7758e-15
301379.06 1.7993e-15
303003.12 1.839e-15
304627.13 1.8489e-15
306251.11 1.8615e-15
307875.18 1.8767e-15
309499.12 1.9115e-15
311123.22 1.9524e-15
312747.2 1.9857e-15
314371.18 1.9743e-15
315995.24 1.9857e-15
317619.22 2.0283e-15
319243.2 2.0397e-15
320867.3 2.0828e-15
322491.27 2.0355e-15
324115.31 2.1243e-15
325739.29 2.1823e-15
327363.3 2.1125e-15
328987.33 2.1163e-15
330611.31 2.1232e-15
332235.29 2.1734e-15
333859.39 2.2526e-15
335483.33 2.2435e-15
