# col1 col2
# An Atlas of Galaxy Spectral Energy Distributions from the Ultraviolet to the Mid-Infrared
# Brown et al. (2014)
# http://dx.doi.org/10.5072/03/529D3551F0117
# 
# Column 1 : Restframe Wavelength (Angstrom)
# Column 2 : Flux per unit wavelength (ergs/s/cm^2/Angstrom)
# Column 3 : Observed wavelength (Angstrom)
# Column 4 : Source (0 = model, 1 = Optical Spectrum, 2 = Akari, 3 = Spitzer IRS)
# 
102.01 4.7688e-20
103.9 5.1217e-20
106.08 5.7202e-20
108.05 6.433e-20
110.06 8.921e-20
113.93 1.0627e-19
117.93 1.209e-19
120.96 3.0368e-19
124.92 3.4867e-19
126.95 3.6933e-19
128.12 3.8319e-19
131.11 4.1344e-19
132.02 4.5752e-19
133.85 4.7909e-19
136.97 5.5388e-19
139.84 5.9349e-19
143.1 1.001e-18
147.11 1.6122e-18
150.88 1.7395e-18
155.11 1.8854e-18
159.09 2.0484e-18
162.04 2.1698e-18
165.82 2.3465e-18
170.07 2.5085e-18
172.83 2.6449e-18
176.86 2.8146e-18
180.15 2.9472e-18
181.82 3.0438e-18
186.05 3.2241e-18
190.82 3.4468e-18
193.92 3.6009e-18
197.98 3.788e-18
202.13 3.9849e-18
204.94 4.1344e-18
210.2 4.2405e-18
216.09 4.671e-18
220.11 4.8799e-18
223.17 4.9936e-18
226.79 5.2289e-18
229.95 7.8417e-18
234.22 1.2954e-17
240.23 1.7038e-17
245.83 1.6308e-17
252.13 1.7315e-17
256.82 1.3881e-17
259.8 1.6843e-17
264.02 1.7841e-17
268.93 1.7841e-17
273.92 1.78e-17
279.02 1.7596e-17
284.2 1.7718e-17
290.16 1.692e-17
296.23 1.6999e-17
301.05 1.6085e-17
308.06 1.6422e-17
318.15 1.6765e-17
327.82 1.6573e-17
337.78 1.6159e-17
348.04 1.5755e-17
356.97 1.5682e-17
366.13 1.5864e-17
374.66 1.5539e-17
385.15 1.4669e-17
395.03 1.515e-17
405.16 1.529e-17
413.65 1.5115e-17
422.31 1.4805e-17
430.16 1.4602e-17
441.2 1.4942e-17
451.47 1.5046e-17
459.87 1.4839e-17
469.5 1.5115e-17
480.43 1.5901e-17
490.49 1.5755e-17
499.61 1.7275e-17
506.56 1.8854e-17
512.43 3.2841e-17
519.55 3.3606e-17
530.43 3.4468e-17
540.3 3.3145e-17
550.34 3.9392e-17
560.57 4.8241e-17
569.68 5.4502e-17
580.27 5.5006e-17
589.7 6.301e-17
600.66 6.2577e-17
610.42 6.8142e-17
620.34 8.422e-17
630.42 8.8596e-17
640.67 9.6253e-17
649.58 1.0409e-16
658.61 1.0627e-16
664.71 1.176e-16
675.51 1.263e-16
684.91 1.2258e-16
694.43 1.4839e-16
705.72 1.3849e-16
715.54 1.7195e-16
725.49 1.8172e-16
735.58 1.9117e-16
745.82 2.0296e-16
754.45 2.1351e-16
764.95 2.1351e-16
775.59 2.3956e-16
784.57 2.4627e-16
795.48 2.6449e-16
804.7 2.7888e-16
815.89 2.9135e-16
825.34 3.1147e-16
834.89 2.719e-16
844.56 3.3145e-16
854.34 3.4152e-16
864.23 3.6426e-16
874.24 3.8231e-16
884.36 4.0125e-16
894.61 4.1823e-16
904.96 4.2502e-16
915.44 5.0398e-16
926.04 2.0721e-15
934.61 4.1154e-15
945.43 7.3521e-15
954.18 9.7817e-15
965.23 1.144e-14
974.16 2.7379e-15
985.44 1.0725e-14
994.56 1.0603e-14
1006.08 1.3753e-14
1015.39 1.2895e-14
1024.78 5.9076e-15
1034.26 9.8949e-15
1043.83 1.6497e-14
1055.92 1.6085e-14
1065.69 1.3471e-14
1075.55 1.5325e-14
1085.5 1.2835e-14
1095.55 1.5682e-14
1105.69 1.4839e-14
1115.92 1.4435e-14
1126.24 1.2984e-14
1134.05 1.5432e-14
1144.54 1.4204e-14
1155.13 1.4703e-14
1165.82 1.4977e-14
1173.9 1.095e-14
1184.76 1.4435e-14
1195.73 1.1283e-14
1204.01 8.8392e-15
1215.15 5.4754e-15
1226.4 1.0337e-14
1234.9 1.3977e-14
1246.33 1.4839e-14
1254.96 1.4303e-14
1263.66 1.3014e-14
1275.36 1.5046e-14
1284.2 1.529e-14
1296.08 1.2924e-14
1305.06 1.2954e-14
1314.11 1.4873e-14
1326.27 1.4171e-14
1335.46 1.3044e-14
1344.72 1.4369e-14
1354.04 1.4009e-14
1366.57 1.2954e-14
1376.04 1.3134e-14
1385.58 1.3195e-14
1395.18 1.1179e-14
1404.85 1.144e-14
1414.59 1.2314e-14
1424.4 1.2201e-14
1434.27 1.2343e-14
1440.89 1.2659e-14
1447.54 1.2601e-14
1454.22 1.2314e-14
1464.31 1.1626e-14
1474.46 1.1599e-14
1484.68 1.1572e-14
1494.97 1.1545e-14
1505.33 1.0975e-14
1512.28 1.0079e-14
1515.76 1.0481e-14
1526.27 1.0385e-14
1533.32 9.2558e-15
1543.94 9.2985e-15
1554.65 8.9828e-15
1565.42 9.3845e-15
1576.27 9.8495e-15
1583.55 1.001e-14
1594.53 1.0102e-14
1605.58 9.8495e-15
1616.71 9.7817e-15
1624.17 9.4932e-15
1635.43 9.8722e-15
1646.76 9.8268e-15
1654.37 9.4714e-15
1665.83 9.8949e-15
1673.52 9.2985e-15
1677.38 9.9406e-15
1685.12 1.001e-14
1696.8 9.581e-15
1704.64 9.2558e-15
1716.45 8.8392e-15
1724.37 8.738e-15
1736.33 9.0868e-15
1744.34 8.88e-15
1756.43 9.1288e-15
1764.54 8.6779e-15
1776.77 8.6579e-15
1784.97 8.738e-15
1793.21 8.9622e-15
1805.64 8.9415e-15
1813.98 8.3447e-15
1826.55 8.4999e-15
1834.98 8.2682e-15
1843.45 7.7164e-15
1856.23 7.6632e-15
1864.8 7.7878e-15
1873.4 8.1548e-15
1886.39 7.5407e-15
1895.1 7.1848e-15
1903.84 7.628e-15
1917.04 7.2847e-15
1925.89 7.0699e-15
1934.78 7.3691e-15
1943.71 7.5061e-15
1957.18 6.989e-15
1966.22 7.4373e-15
1975.29 7.628e-15
1984.41 7.2346e-15
1993.57 7.0536e-15
2002.77 7.2346e-15
2016.65 7.0862e-15
2025.96 7.3015e-15
2035.31 6.8931e-15
2044.71 6.9729e-15
2054.15 6.4925e-15
2063.63 6.6591e-15
2073.15 7.0862e-15
2077.93 6.6898e-15
2082.72 6.8772e-15
2097.16 6.5526e-15
2106.84 6.6744e-15
2116.56 6.6898e-15
2126.33 6.7362e-15
2136.15 6.5075e-15
2146.01 6.4182e-15
2155.91 6.5828e-15
2165.87 6.433e-15
2175.86 6.3887e-15
2185.91 6.2433e-15
2196.0 6.3887e-15
2206.13 6.2577e-15
2216.31 6.1012e-15
2226.55 5.9486e-15
2236.82 6.0731e-15
2247.15 5.9486e-15
2257.52 5.7865e-15
2262.72 5.8535e-15
2273.17 5.867e-15
2283.66 5.8805e-15
2294.2 5.6292e-15
2304.79 5.6456e-15
2315.43 5.4951e-15
2326.12 4.7779e-15
2336.85 5.2906e-15
2347.64 5.2212e-15
2353.05 5.3077e-15
2363.91 5.1425e-15
2374.83 5.1457e-15
2385.79 4.9741e-15
2396.8 5.1049e-15
2402.32 4.9673e-15
2413.41 4.9819e-15
2424.55 5.0428e-15
2435.74 4.8972e-15
2446.99 4.9914e-15
2452.63 4.9358e-15
2463.95 4.8824e-15
2475.32 4.7854e-15
2486.75 4.8328e-15
2492.48 4.4498e-15
2503.98 4.8042e-15
2515.54 4.5593e-15
2527.15 4.5834e-15
2532.98 4.5638e-15
2544.67 4.4835e-15
2556.42 4.5698e-15
2562.31 4.519e-15
2574.14 4.5955e-15
2586.02 4.5564e-15
2597.95 4.5177e-15
2603.94 4.4265e-15
2615.96 4.3889e-15
2621.99 4.4005e-15
2634.1 4.4035e-15
2646.25 4.4987e-15
2652.35 4.4899e-15
2664.6 4.3305e-15
2676.9 4.3635e-15
2683.07 4.3449e-15
2695.45 4.2392e-15
2707.89 4.2422e-15
2714.14 4.1566e-15
2726.66 4.1309e-15
2732.95 4.161e-15
2745.56 3.9765e-15
2751.89 3.9687e-15
2764.6 3.9991e-15
2777.36 4.0482e-15
2783.76 3.9849e-15
2796.61 3.7045e-15
2803.05 3.8009e-15
2815.99 3.9555e-15
2822.48 3.9387e-15
2835.51 3.8253e-15
2842.05 3.7916e-15
2855.17 3.7596e-15
2861.75 3.8221e-15
2874.96 3.7898e-15
2888.23 3.7751e-15
2894.89 3.7505e-15
2908.25 3.788e-15
2928.41 3.7059e-15
2948.71 3.634e-15
2969.15 3.613e-15
2989.73 3.5593e-15
3010.45 3.5225e-15
3031.32 3.4942e-15
3052.33 3.4503e-15
3073.49 3.4147e-15
3087.67 3.3627e-15
3109.08 3.3358e-15
3130.63 3.2712e-15
3152.33 3.245e-15
3166.88 3.2031e-15
3188.83 3.1123e-15
3210.93 3.1089e-15
3233.19 3.0488e-15
3248.12 3.0583e-15
3270.63 3.048e-15
3293.3 3.0098e-15
3308.5 2.971e-15
3323.77 3.0148e-15
3331.44 3.023e-15
3339.12 2.9014e-15
3346.81 2.984e-15
3354.53 2.8839e-15
3362.26 2.852e-15
3370.01 2.8141e-15
3377.78 2.7959e-15
3385.57 2.8688e-15
3393.37 2.9032e-15
3401.19 2.9584e-15
3409.03 2.807e-15
3416.89 2.8342e-15
3424.77 2.8815e-15
3432.67 2.9228e-15
3440.58 2.8509e-15
3448.51 2.7808e-15
3456.46 2.7249e-15
3464.43 2.664e-15
3472.41 2.7461e-15
3480.42 2.6786e-15
3488.44 2.7233e-15
3496.48 2.7119e-15
3504.54 2.6575e-15
3512.62 2.6342e-15
3520.72 2.6782e-15
3528.84 2.6184e-15
3536.97 2.6805e-15
3545.13 2.6941e-15
3553.3 2.7014e-15
3561.49 2.6902e-15
3569.7 2.612e-15
3577.93 2.5244e-15
3586.18 2.4795e-15
3594.44 2.5151e-15
3602.73 2.5807e-15
3611.03 2.5289e-15
3619.36 2.5711e-15
3627.7 2.6261e-15
3634.75 3.0813e-15
3637.49 2.3363e-15
3640.23 2.9115e-15
3642.97 3.4855e-15
3645.71 3.7862e-15
3648.46 2.3922e-15
3651.2 2.8739e-15
3653.94 2.5063e-15
3656.68 3.745e-15
3659.42 2.2458e-15
3662.16 2.4393e-15
3664.9 2.4126e-15
3667.64 2.2676e-15
3670.39 2.2946e-15
3673.13 2.2419e-15
3675.87 2.9318e-15
3678.61 3.1489e-15
3681.35 3.5108e-15
3684.09 7.9591e-16
3686.83 3.3817e-15
3689.58 2.2108e-15
3692.32 2.4942e-15
3695.06 2.0731e-15
3697.8 2.2009e-15
3700.54 2.3489e-15
3703.28 2.2925e-15
3706.02 3.1053e-15
3708.77 2.3252e-15
3711.51 2.7171e-15
3714.25 3.637e-15
3716.99 3.855e-15
3719.73 7.098e-15
3722.47 1.3499e-14
3725.21 2.5516e-14
3727.95 3.0297e-14
3730.7 2.5131e-14
3733.44 1.2943e-14
3736.18 5.7182e-15
3738.92 3.3902e-15
3741.66 2.3755e-15
3744.4 2.2771e-15
3747.14 2.8325e-15
3749.89 2.8879e-15
3752.63 2.9103e-15
3755.37 1.7585e-15
3758.11 2.8244e-15
3760.85 2.7343e-15
3763.59 2.4048e-15
3766.33 3.0034e-15
3769.07 3.3553e-15
3771.82 3.3455e-15
3774.56 3.1721e-15
3777.3 3.0968e-15
3780.04 2.9955e-15
3782.78 2.617e-15
3785.52 2.2622e-15
3788.26 3.018e-15
3791.01 2.6876e-15
3793.75 2.5162e-15
3796.49 3.4793e-15
3799.23 3.2967e-15
3801.97 2.623e-15
3804.71 2.6863e-15
3807.45 2.5469e-15
3810.19 2.4056e-15
3812.94 1.9091e-15
3815.68 1.9395e-15
3818.42 2.8057e-15
3821.16 2.2762e-15
3823.9 2.2096e-15
3826.64 2.2469e-15
3829.38 2.7811e-15
3832.13 2.9522e-15
3834.87 3.7307e-15
3837.61 3.1698e-15
3840.35 3.0768e-15
3843.09 2.7703e-15
3845.83 2.6441e-15
3848.57 3.0632e-15
3851.32 2.6385e-15
3854.06 3.0919e-15
3856.8 3.3642e-15
3859.54 3.1703e-15
3862.28 5.2425e-15
3865.02 8.3937e-15
3867.76 1.0209e-14
3870.5 8.7195e-15
3873.25 5.8381e-15
3875.99 3.1747e-15
3878.73 2.5241e-15
3881.47 3.3944e-15
3884.21 4.3829e-15
3886.95 5.5259e-15
3889.69 5.879e-15
3892.44 4.3132e-15
3895.18 3.2773e-15
3897.92 2.5869e-15
3900.66 2.1452e-15
3903.4 2.5459e-15
3906.14 2.2102e-15
3908.88 2.8478e-15
3911.62 2.5833e-15
3914.37 3.0476e-15
3917.11 2.3398e-15
3919.85 2.6599e-15
3922.59 3.0256e-15
3925.33 2.1989e-15
3928.07 2.2925e-15
3930.81 2.1781e-15
3933.56 2.4121e-15
3936.3 2.1925e-15
3939.04 2.3171e-15
3941.78 2.403e-15
3944.52 2.4184e-15
3947.26 2.2944e-15
3950.0 2.4404e-15
3952.75 2.4113e-15
3955.49 2.5955e-15
3958.23 2.5419e-15
3960.97 3.4855e-15
3963.71 5.2482e-15
3966.45 6.7306e-15
3969.19 6.4525e-15
3971.93 4.9082e-15
3974.68 3.0429e-15
3977.42 2.6048e-15
3980.16 2.4928e-15
3982.9 2.3749e-15
3985.64 2.6359e-15
3988.38 2.1493e-15
3991.12 2.2402e-15
3993.87 2.5229e-15
3996.61 2.2212e-15
3999.35 2.9387e-15
4002.09 2.6953e-15
4004.83 2.9493e-15
4007.57 2.3037e-15
4010.31 2.5267e-15
4013.05 2.5407e-15
4015.8 2.9741e-15
4018.54 2.3094e-15
4021.28 2.6064e-15
4024.02 2.9081e-15
4026.76 2.392e-15
4029.5 3.0821e-15
4032.24 2.6431e-15
4034.99 2.762e-15
4037.73 2.5626e-15
4040.47 2.6812e-15
4043.21 2.4345e-15
4045.95 2.3085e-15
4048.69 2.7288e-15
4051.43 2.7178e-15
4054.17 2.4072e-15
4056.92 2.6576e-15
4059.66 2.7197e-15
4062.4 3.1532e-15
4065.14 2.5553e-15
4067.88 2.4543e-15
4070.62 2.0649e-15
4073.36 2.4296e-15
4076.11 2.6217e-15
4078.85 2.1327e-15
4081.59 2.1567e-15
4084.33 2.512e-15
4087.07 2.4366e-15
4089.81 2.0194e-15
4092.55 2.8431e-15
4095.3 4.2323e-15
4098.04 6.1028e-15
4100.78 6.8657e-15
4103.52 5.7834e-15
4106.26 3.408e-15
4109.0 2.3962e-15
4111.74 2.4715e-15
4114.48 2.6304e-15
4117.23 2.3224e-15
4119.97 2.3863e-15
4122.71 2.4714e-15
4125.45 2.4182e-15
4128.19 2.1831e-15
4130.93 2.1324e-15
4133.67 2.3407e-15
4136.42 2.3683e-15
4139.16 2.3964e-15
4141.9 2.843e-15
4144.64 2.5797e-15
4147.38 2.6505e-15
4150.12 2.0995e-15
4152.86 2.5005e-15
4155.61 2.3038e-15
4158.35 2.5411e-15
4161.09 2.6001e-15
4163.83 2.5583e-15
4166.57 2.149e-15
4169.31 2.4364e-15
4172.05 2.6703e-15
4174.79 2.343e-15
4177.54 2.4144e-15
4180.28 2.5937e-15
4183.02 2.3539e-15
4185.76 2.2705e-15
4188.5 2.4791e-15
4191.24 2.7424e-15
4193.98 2.6531e-15
4196.73 2.3856e-15
4199.47 2.4839e-15
4202.21 2.8155e-15
4204.95 2.4618e-15
4207.69 2.4786e-15
4210.43 2.5529e-15
4213.17 2.5662e-15
4215.91 2.5374e-15
4218.66 2.7089e-15
4221.4 2.643e-15
4224.14 2.3601e-15
4226.88 2.4374e-15
4229.62 2.5038e-15
4232.36 2.3462e-15
4235.1 2.236e-15
4237.85 2.2076e-15
4240.59 2.3031e-15
4243.33 2.4197e-15
4246.07 2.3657e-15
4248.81 2.2651e-15
4251.55 2.319e-15
4254.29 2.3784e-15
4257.04 2.451e-15
4259.78 2.4967e-15
4262.52 2.2935e-15
4265.26 2.2499e-15
4268.0 2.3324e-15
4270.74 2.1633e-15
4273.48 2.0904e-15
4276.22 2.2725e-15
4278.97 2.2517e-15
4281.71 2.0789e-15
4284.45 2.1791e-15
4287.19 2.1969e-15
4289.93 2.1838e-15
4292.67 2.3808e-15
4295.41 2.2583e-15
4298.16 1.9623e-15
4300.9 2.1356e-15
4303.64 2.1599e-15
4306.38 2.4207e-15
4309.12 2.4756e-15
4311.86 2.1866e-15
4314.6 2.0839e-15
4317.34 2.3639e-15
4320.09 2.2212e-15
4322.83 2.209e-15
4325.57 2.2298e-15
4328.31 2.1768e-15
4331.05 2.7915e-15
4333.79 4.9914e-15
4336.53 8.5412e-15
4339.28 1.0347e-14
4342.02 8.4342e-15
4344.76 4.9137e-15
4347.5 2.9377e-15
4350.24 2.25e-15
4352.98 2.0931e-15
4355.72 2.4353e-15
4358.46 2.9723e-15
4361.21 3.1792e-15
4363.95 3.1087e-15
4366.69 2.8951e-15
4369.43 2.423e-15
4372.17 2.2405e-15
4374.91 2.2643e-15
4377.65 1.9421e-15
4380.4 2.107e-15
4383.14 2.2504e-15
4385.88 2.1764e-15
4388.62 2.4788e-15
4391.36 2.4994e-15
4394.1 2.3611e-15
4396.84 2.3567e-15
4399.59 2.1716e-15
4402.33 2.0677e-15
4405.07 2.4956e-15
4407.81 2.3237e-15
4410.55 2.11e-15
4413.29 2.1608e-15
4416.03 2.2017e-15
4418.77 2.4021e-15
4421.52 2.1835e-15
4424.26 2.3148e-15
4427.0 2.1436e-15
4429.74 2.0934e-15
4432.48 2.1659e-15
4435.22 2.366e-15
4437.96 2.0407e-15
4440.71 2.3134e-15
4443.45 2.2711e-15
4446.19 2.3623e-15
4448.93 1.9999e-15
4451.67 2.1199e-15
4454.41 2.2137e-15
4457.15 2.1375e-15
4459.89 1.9291e-15
4462.64 2.221e-15
4465.38 2.4155e-15
4468.12 2.8687e-15
4470.86 2.9852e-15
4473.6 2.829e-15
4476.34 2.9838e-15
4479.08 2.7771e-15
4481.83 2.6051e-15
4484.57 2.3148e-15
4487.31 2.3303e-15
4490.05 2.1902e-15
4492.79 2.2723e-15
4495.53 2.2596e-15
4498.27 2.1054e-15
4501.02 2.2221e-15
4503.76 1.991e-15
4506.5 2.3484e-15
4509.24 2.1324e-15
4511.98 2.0721e-15
4514.72 2.3139e-15
4517.46 2.0162e-15
4520.2 2.1363e-15
4522.95 2.2114e-15
4525.69 1.9049e-15
4528.43 2.1604e-15
4531.17 2.153e-15
4533.91 1.8337e-15
4536.65 2.1481e-15
4539.39 2.1354e-15
4542.14 2.2966e-15
4544.88 2.0398e-15
4547.62 2.2791e-15
4550.36 2.1948e-15
4553.1 2.0238e-15
4555.84 2.157e-15
4558.58 2.049e-15
4561.32 2.4623e-15
4564.07 2.271e-15
4566.81 2.0076e-15
4569.55 2.0736e-15
4572.29 2.4342e-15
4575.03 2.2632e-15
4577.77 1.8887e-15
4580.51 1.9727e-15
4583.26 2.1107e-15
4586.0 2.376e-15
4588.74 2.136e-15
4591.48 2.1283e-15
4594.22 2.0934e-15
4596.96 2.3026e-15
4599.7 2.2189e-15
4602.44 2.3901e-15
4605.19 1.9756e-15
4607.93 2.2488e-15
4610.67 2.4981e-15
4613.41 2.0787e-15
4616.15 2.1328e-15
4618.89 2.1871e-15
4621.63 2.2489e-15
4624.38 2.0167e-15
4627.12 2.4249e-15
4629.86 1.8421e-15
4632.6 2.3369e-15
4635.34 2.3777e-15
4638.08 1.8413e-15
4640.82 1.8185e-15
4643.57 2.3173e-15
4646.31 2.2331e-15
4649.05 2.1123e-15
4651.79 2.25e-15
4654.53 2.4618e-15
4657.27 2.5012e-15
4660.01 2.1465e-15
4662.75 1.9251e-15
4665.5 1.9895e-15
4668.24 2.0144e-15
4670.98 1.848e-15
4673.72 2.3213e-15
4676.46 2.3208e-15
4679.2 2.303e-15
4681.94 2.4187e-15
4684.69 2.3266e-15
4687.43 2.2218e-15
4690.17 2.286e-15
4692.91 2.3179e-15
4695.65 2.373e-15
4698.39 2.4202e-15
4701.13 2.4941e-15
4703.87 2.07e-15
4706.62 2.3607e-15
4709.36 2.0151e-15
4712.1 2.3139e-15
4714.84 2.1112e-15
4717.58 2.3075e-15
4720.32 1.9288e-15
4723.06 2.0168e-15
4725.81 2.0129e-15
4728.55 2.0706e-15
4731.29 1.9576e-15
4734.03 1.8493e-15
4736.77 2.0017e-15
4739.51 2.0398e-15
4742.25 2.231e-15
4745.0 1.9985e-15
4747.74 2.0665e-15
4750.48 1.9452e-15
4753.22 2.0357e-15
4755.96 2.2059e-15
4758.7 2.1506e-15
4761.44 2.2194e-15
4764.18 1.9618e-15
4766.93 1.94e-15
4769.67 2.1558e-15
4772.41 2.1353e-15
4775.15 2.294e-15
4777.89 1.9153e-15
4780.63 1.8922e-15
4783.37 1.962e-15
4786.12 1.981e-15
4788.86 2.1872e-15
4791.6 2.1228e-15
4794.34 1.9573e-15
4797.08 2.0632e-15
4799.82 2.3942e-15
4802.56 2.0291e-15
4805.3 2.24e-15
4808.05 2.1918e-15
4810.79 2.041e-15
4813.53 1.9008e-15
4816.27 2.3549e-15
4819.01 2.2243e-15
4821.75 2.2575e-15
4824.49 1.932e-15
4827.24 2.0068e-15
4829.98 2.0012e-15
4832.72 2.1256e-15
4835.46 1.9917e-15
4838.2 2.052e-15
4840.94 2.132e-15
4843.68 2.2085e-15
4846.42 1.9597e-15
4849.17 2.0035e-15
4851.91 3.0745e-15
4854.65 7.3209e-15
4857.39 1.6022e-14
4860.13 2.2471e-14
4862.87 1.9482e-14
4865.61 1.0094e-14
4868.36 3.9348e-15
4871.1 2.2406e-15
4873.84 2.0863e-15
4876.58 1.8712e-15
4879.32 2.1745e-15
4882.06 1.9882e-15
4884.8 1.9633e-15
4887.55 1.9096e-15
4890.29 1.8959e-15
4893.03 1.9749e-15
4895.77 2.0196e-15
4898.51 2.0062e-15
4901.25 1.7018e-15
4903.99 1.9175e-15
4906.73 1.9926e-15
4909.48 1.9366e-15
4912.22 1.9076e-15
4914.96 1.9258e-15
4917.7 2.1918e-15
4920.44 2.2041e-15
4923.18 2.2811e-15
4925.92 2.072e-15
4928.67 1.9833e-15
4931.41 1.8808e-15
4934.15 2.1157e-15
4936.89 1.7384e-15
4939.63 2.2695e-15
4942.37 1.9756e-15
4945.11 2.268e-15
4947.85 2.8862e-15
4950.6 6.1959e-15
4953.34 1.693e-14
4956.08 3.3216e-14
4958.82 3.8712e-14
4961.56 2.7721e-14
4964.3 1.1277e-14
4967.04 4.1907e-15
4969.79 3.1354e-15
4972.53 2.2511e-15
4975.27 2.1602e-15
4978.01 2.027e-15
4980.75 1.9434e-15
4983.49 2.3363e-15
4986.23 2.3737e-15
4988.98 2.3356e-15
4991.72 2.7025e-15
4994.46 3.4649e-15
4997.2 7.9173e-15
4999.94 2.6615e-14
5002.68 7.1263e-14
5005.42 1.0997e-13
5008.16 1.0205e-13
5010.91 5.2974e-14
5013.65 1.6115e-14
5016.39 5.3957e-15
5019.13 2.9739e-15
5021.87 1.9852e-15
5024.61 2.1048e-15
5027.35 1.9794e-15
5030.1 2.1599e-15
5032.84 1.9051e-15
5035.58 1.9082e-15
5038.32 1.926e-15
5041.06 1.7817e-15
5043.8 2.0276e-15
5046.54 2.0342e-15
5049.28 1.8648e-15
5052.03 1.7611e-15
5054.77 1.9303e-15
5057.51 2.0204e-15
5060.25 1.8995e-15
5062.99 1.9515e-15
5065.73 2.053e-15
5068.47 2.0489e-15
5071.22 1.8333e-15
5073.96 1.7885e-15
5076.7 1.833e-15
5079.44 1.8947e-15
5082.18 1.901e-15
5084.92 1.8562e-15
5087.66 2.0364e-15
5090.4 1.7602e-15
5093.15 1.8564e-15
5095.89 1.8687e-15
5098.63 1.8064e-15
5101.37 1.7737e-15
5104.11 1.995e-15
5106.85 1.5687e-15
5109.59 1.7282e-15
5112.34 2.0263e-15
5115.08 1.9859e-15
5117.82 2.0185e-15
5120.56 1.7634e-15
5123.3 1.869e-15
5126.04 1.8779e-15
5128.78 1.6036e-15
5131.53 1.851e-15
5134.27 1.7236e-15
5137.01 1.8153e-15
5139.75 1.748e-15
5142.49 1.7737e-15
5145.23 1.7518e-15
5147.97 1.7463e-15
5150.71 1.6806e-15
5153.46 1.7325e-15
5156.2 1.8155e-15
5158.94 1.9602e-15
5161.68 1.8941e-15
5164.42 1.9309e-15
5167.16 1.8217e-15
5169.9 1.9585e-15
5172.65 1.7513e-15
5175.39 1.8776e-15
5178.13 1.6521e-15
5180.87 1.8595e-15
5183.61 1.7995e-15
5186.35 1.5585e-15
5189.09 1.6032e-15
5191.83 1.744e-15
5194.58 1.7337e-15
5197.32 1.9257e-15
5200.06 2.0504e-15
5202.8 2.0492e-15
5205.54 1.8927e-15
5208.28 1.7193e-15
5211.02 1.9435e-15
5213.77 1.7416e-15
5216.51 1.8985e-15
5219.25 1.8894e-15
5221.99 1.9508e-15
5224.73 1.7536e-15
5227.47 1.8997e-15
5230.21 1.4558e-15
5232.96 1.641e-15
5235.7 1.6752e-15
5238.44 1.8087e-15
5241.18 1.9673e-15
5243.92 1.8585e-15
5246.66 1.9624e-15
5249.4 1.8231e-15
5252.14 1.7892e-15
5254.89 2.0513e-15
5257.63 1.7811e-15
5260.37 1.7638e-15
5263.11 1.7351e-15
5265.85 1.5781e-15
5268.59 1.6076e-15
5271.33 1.7814e-15
5274.08 1.6766e-15
5276.82 1.6783e-15
5279.56 1.7921e-15
5282.3 1.7135e-15
5285.04 1.7686e-15
5287.78 1.7666e-15
5290.52 1.9061e-15
5293.26 1.6662e-15
5296.01 1.7894e-15
5298.75 1.7907e-15
5301.49 1.993e-15
5304.23 1.9924e-15
5306.97 1.6869e-15
5309.71 1.8968e-15
5312.45 1.8159e-15
5315.2 1.8527e-15
5317.94 1.8384e-15
5320.68 1.776e-15
5323.42 1.6193e-15
5326.16 1.7829e-15
5328.9 1.8434e-15
5331.64 1.4761e-15
5334.38 1.8211e-15
5337.13 1.8518e-15
5339.87 1.8055e-15
5342.61 1.737e-15
5345.35 1.7085e-15
5348.09 1.7181e-15
5350.83 1.7521e-15
5353.57 1.7706e-15
5356.32 1.6717e-15
5359.06 1.9111e-15
5361.8 1.8561e-15
5364.54 1.8612e-15
5367.28 1.7588e-15
5370.02 1.8526e-15
5372.76 1.7023e-15
5375.51 1.8511e-15
5378.25 1.9647e-15
5380.99 2.0411e-15
5383.73 1.6126e-15
5386.47 1.7899e-15
5389.21 1.6084e-15
5391.95 1.5952e-15
5394.69 1.4658e-15
5397.44 1.691e-15
5400.18 1.9237e-15
5402.92 1.6533e-15
5405.66 1.5523e-15
5408.4 1.8214e-15
5411.14 1.6485e-15
5413.88 1.7058e-15
5416.63 1.5692e-15
5419.37 1.7042e-15
5422.11 1.7135e-15
5424.85 1.7868e-15
5427.59 1.6617e-15
5430.33 1.5853e-15
5433.07 1.8264e-15
5435.81 1.8184e-15
5438.56 1.6244e-15
5441.3 1.6478e-15
5444.04 1.5513e-15
5446.78 1.6029e-15
5449.52 1.699e-15
5452.26 1.7043e-15
5455.0 1.7514e-15
5457.75 1.4953e-15
5460.49 1.5924e-15
5463.23 1.7967e-15
5465.97 1.7135e-15
5468.71 1.6741e-15
5471.45 1.7281e-15
5474.19 1.7302e-15
5476.94 1.6869e-15
5479.68 1.7191e-15
5482.42 1.798e-15
5485.16 1.7817e-15
5487.9 1.6354e-15
5490.64 1.7949e-15
5493.38 1.7159e-15
5496.12 1.8254e-15
5498.87 1.6832e-15
5501.61 1.9168e-15
5504.35 1.6845e-15
5507.09 1.6789e-15
5509.83 1.8131e-15
5512.57 1.7485e-15
5515.31 1.7471e-15
5518.06 1.7789e-15
5520.8 1.615e-15
5523.54 1.8142e-15
5526.28 1.7297e-15
5529.02 1.6608e-15
5531.76 1.5712e-15
5534.5 1.666e-15
5537.24 1.614e-15
5539.99 1.5232e-15
5542.73 1.5393e-15
5545.47 1.7187e-15
5548.21 1.74e-15
5550.95 1.8481e-15
5553.69 1.5656e-15
5556.43 1.5345e-15
5559.18 1.4599e-15
5561.92 1.5407e-15
5564.66 1.8008e-15
5567.4 1.8594e-15
5570.14 1.4161e-15
5572.88 1.8036e-15
5575.62 1.7336e-15
5578.36 1.4632e-15
5581.11 1.6006e-15
5583.85 1.4736e-15
5586.59 1.8206e-15
5589.33 1.677e-15
5592.07 1.6943e-15
5594.81 1.666e-15
5597.55 1.6236e-15
5600.3 1.6737e-15
5603.04 1.6076e-15
5605.78 1.3727e-15
5608.52 1.5178e-15
5611.26 1.5671e-15
5614.0 1.472e-15
5616.74 1.633e-15
5619.49 1.6382e-15
5622.23 1.5736e-15
5624.97 1.5996e-15
5627.71 1.6707e-15
5630.45 1.5735e-15
5633.19 1.6931e-15
5635.93 1.607e-15
5638.67 1.5609e-15
5641.42 1.6731e-15
5644.16 1.7347e-15
5646.9 1.6144e-15
5649.64 1.5576e-15
5652.38 1.518e-15
5655.12 1.4783e-15
5657.86 1.6298e-15
5660.61 1.681e-15
5663.35 1.7625e-15
5666.09 1.7218e-15
5668.83 1.6449e-15
5671.57 1.6299e-15
5674.31 1.5024e-15
5677.05 1.3911e-15
5679.79 1.38e-15
5682.54 1.6996e-15
5685.28 1.6563e-15
5688.02 1.6814e-15
5690.76 1.7101e-15
5693.5 1.6851e-15
5696.24 1.799e-15
5698.98 1.696e-15
5701.73 1.5742e-15
5704.47 1.617e-15
5707.21 1.6333e-15
5709.95 1.5187e-15
5712.69 1.4907e-15
5715.43 1.5918e-15
5718.17 1.6567e-15
5720.92 1.5345e-15
5723.66 1.4974e-15
5726.4 1.5982e-15
5729.14 1.5439e-15
5731.88 1.6068e-15
5734.62 1.7423e-15
5737.36 1.659e-15
5740.1 1.5463e-15
5742.85 1.6179e-15
5745.59 1.5477e-15
5748.33 1.4325e-15
5751.07 1.478e-15
5753.81 1.4814e-15
5756.55 1.55e-15
5759.29 1.7336e-15
5762.04 1.7758e-15
5764.78 1.6667e-15
5767.52 1.5737e-15
5770.26 1.7018e-15
5773.0 1.7074e-15
5775.74 1.7154e-15
5778.48 1.6003e-15
5781.22 1.5227e-15
5783.97 1.5572e-15
5786.71 1.7058e-15
5789.45 1.6894e-15
5792.19 1.5792e-15
5794.93 1.6285e-15
5797.67 1.6425e-15
5800.41 1.6919e-15
5803.16 1.7137e-15
5805.9 1.6277e-15
5808.64 1.6566e-15
5811.38 1.6265e-15
5814.12 1.6702e-15
5816.86 1.6416e-15
5819.6 1.5932e-15
5822.34 1.5494e-15
5825.09 1.4583e-15
5827.83 1.5618e-15
5830.57 1.5595e-15
5833.31 1.5686e-15
5836.05 1.5284e-15
5838.79 1.7361e-15
5841.53 1.5697e-15
5844.28 1.5451e-15
5847.02 1.4496e-15
5849.76 1.3758e-15
5852.5 1.5754e-15
5855.24 1.3112e-15
5857.98 1.5937e-15
5860.72 1.3697e-15
5863.47 1.6141e-15
5866.21 1.6896e-15
5868.95 2.2387e-15
5871.69 2.8334e-15
5874.43 3.4676e-15
5877.17 3.4325e-15
5879.91 2.292e-15
5882.65 1.8214e-15
5885.4 1.5759e-15
5888.14 1.5126e-15
5890.88 1.3767e-15
5893.62 1.3941e-15
5896.36 1.1961e-15
5899.1 1.301e-15
5901.84 1.5765e-15
5904.59 1.5773e-15
5907.33 1.4628e-15
5910.07 1.4079e-15
5912.81 1.657e-15
5915.55 1.5987e-15
5918.29 1.6479e-15
5921.03 1.6685e-15
5923.77 1.5552e-15
5926.52 1.398e-15
5929.26 1.3956e-15
5932.0 1.4156e-15
5934.74 1.5103e-15
5937.48 1.5178e-15
5940.22 1.3354e-15
5942.96 1.6695e-15
5945.71 1.4792e-15
5948.45 1.4223e-15
5951.19 1.3376e-15
5953.93 1.3379e-15
5956.67 1.3662e-15
5959.41 1.6086e-15
5962.15 1.2834e-15
5964.9 1.3892e-15
5967.64 1.6199e-15
5970.38 1.6417e-15
5973.12 1.5813e-15
5975.86 1.4783e-15
5978.6 1.6205e-15
5981.34 1.4571e-15
5984.08 1.4468e-15
5986.83 1.2574e-15
5989.57 1.5857e-15
5992.31 1.5128e-15
5995.05 1.6619e-15
5997.79 1.4471e-15
6000.53 1.6075e-15
6003.27 1.6736e-15
6006.02 1.7081e-15
6008.76 1.5411e-15
6011.5 1.5364e-15
6014.24 1.4615e-15
6016.98 1.4193e-15
6019.72 1.5724e-15
6022.46 1.4818e-15
6025.2 1.3776e-15
6027.95 1.3884e-15
6030.69 1.6739e-15
6033.43 1.351e-15
6036.17 1.6446e-15
6038.91 1.6465e-15
6041.65 1.6126e-15
6044.39 1.6025e-15
6047.14 1.8374e-15
6049.88 1.6528e-15
6052.62 1.5124e-15
6055.36 1.4985e-15
6058.1 1.4287e-15
6060.84 1.4213e-15
6063.58 1.4733e-15
6066.32 1.4846e-15
6069.07 1.5677e-15
6071.81 1.3888e-15
6074.55 1.4421e-15
6077.29 1.5362e-15
6080.03 1.2728e-15
6082.77 1.3655e-15
6085.51 1.3956e-15
6088.26 1.4869e-15
6091.0 1.3835e-15
6093.74 1.528e-15
6096.48 1.4616e-15
6099.22 1.3123e-15
6101.96 1.5123e-15
6104.7 1.5716e-15
6107.45 1.5637e-15
6110.19 1.5297e-15
6112.93 1.3485e-15
6115.67 1.2261e-15
6118.41 1.3567e-15
6121.15 1.515e-15
6123.89 1.5439e-15
6126.63 1.4823e-15
6129.38 1.3698e-15
6132.12 1.4044e-15
6134.86 1.3646e-15
6137.6 1.4701e-15
6140.34 1.2956e-15
6143.08 1.3828e-15
6145.82 1.4507e-15
6148.57 1.5332e-15
6151.31 1.4416e-15
6154.05 1.3771e-15
6156.79 1.3705e-15
6159.53 1.3483e-15
6162.27 1.401e-15
6165.01 1.4353e-15
6167.75 1.4461e-15
6170.5 1.3839e-15
6173.24 1.4447e-15
6175.98 1.364e-15
6178.72 1.3231e-15
6181.46 1.4765e-15
6184.2 1.4794e-15
6186.94 1.305e-15
6189.69 1.3954e-15
6192.43 1.3713e-15
6195.17 1.5574e-15
6197.91 1.4069e-15
6200.65 1.3383e-15
6203.39 1.3855e-15
6206.13 1.2977e-15
6208.88 1.4212e-15
6211.62 1.6076e-15
6214.36 1.3952e-15
6217.1 1.4688e-15
6219.84 1.2777e-15
6222.58 1.5257e-15
6225.32 1.4111e-15
6228.06 1.4125e-15
6230.81 1.399e-15
6233.55 1.5706e-15
6236.29 1.4696e-15
6239.03 1.1552e-15
6241.77 1.4172e-15
6244.51 1.272e-15
6247.25 1.3633e-15
6250.0 1.2922e-15
6252.74 1.3523e-15
6255.48 1.0337e-15
6258.22 1.1645e-15
6260.96 1.3732e-15
6263.7 1.3178e-15
6266.44 1.3823e-15
6269.18 1.3545e-15
6271.93 1.6372e-15
6274.67 1.3778e-15
6277.41 1.3267e-15
6280.15 1.4823e-15
6282.89 1.2869e-15
6285.63 7.7777e-16
6288.37 1.0716e-15
6291.12 1.2473e-15
6293.86 1.557e-15
6296.6 1.979e-15
6299.34 2.207e-15
6302.08 1.9193e-15
6304.82 1.839e-15
6307.56 1.6855e-15
6310.3 1.7515e-15
6313.05 1.7036e-15
6315.79 1.0287e-15
6318.53 1.3542e-15
6321.27 1.3463e-15
6324.01 1.2197e-15
6326.75 1.3829e-15
6329.49 1.5719e-15
6332.24 1.5827e-15
6334.98 1.5308e-15
6337.72 1.5457e-15
6340.46 1.5134e-15
6343.2 1.339e-15
6345.94 1.5491e-15
6348.68 1.2242e-15
6351.43 1.4128e-15
6354.17 1.5104e-15
6356.91 1.3346e-15
6359.65 1.2367e-15
6362.39 1.5038e-15
6365.13 1.6023e-15
6367.87 1.5833e-15
6370.61 1.3339e-15
6373.36 1.3232e-15
6376.1 1.201e-15
6378.84 1.3774e-15
6381.58 1.5225e-15
6384.32 1.4405e-15
6387.06 1.3753e-15
6389.8 1.413e-15
6392.55 1.435e-15
6395.29 1.4445e-15
6398.03 1.2921e-15
6400.77 1.4327e-15
6403.51 1.4371e-15
6406.25 1.4731e-15
6408.99 1.574e-15
6411.73 1.3096e-15
6414.48 1.4151e-15
6417.22 1.5347e-15
6419.96 1.3809e-15
6422.7 1.2307e-15
6425.44 1.303e-15
6428.18 1.4376e-15
6430.92 1.3469e-15
6433.67 1.2995e-15
6436.41 1.5212e-15
6439.15 1.3674e-15
6441.89 1.1977e-15
6444.63 1.4406e-15
6447.37 1.2869e-15
6450.11 1.4821e-15
6452.86 1.5582e-15
6455.6 1.3616e-15
6458.34 1.386e-15
6461.08 1.2185e-15
6463.82 1.2079e-15
6466.56 1.335e-15
6469.3 1.2306e-15
6472.04 1.3325e-15
6474.79 1.6693e-15
6477.53 1.226e-15
6480.27 1.5518e-15
6483.01 1.2326e-15
6485.75 1.3785e-15
6488.49 1.2204e-15
6491.23 1.237e-15
6493.98 1.2497e-15
6496.72 1.3168e-15
6499.46 1.4417e-15
6502.2 1.4318e-15
6504.94 1.238e-15
6507.68 1.4303e-15
6510.42 1.308e-15
6513.16 1.4714e-15
6515.91 1.6261e-15
6518.65 1.5893e-15
6521.39 1.3158e-15
6524.13 1.365e-15
6526.87 1.4382e-15
6529.61 1.3492e-15
6532.35 1.1956e-15
6535.1 1.2701e-15
6537.84 1.5324e-15
6540.58 1.4487e-15
6543.32 1.8087e-15
6546.06 1.9896e-15
6548.8 2.1868e-15
6551.54 3.5462e-15
6554.28 8.5842e-15
6557.03 2.7246e-14
6559.77 5.3291e-14
6562.51 6.1369e-14
6565.25 4.0837e-14
6567.99 1.6892e-14
6570.73 5.4298e-15
6573.47 2.5321e-15
6576.22 2.1512e-15
6578.96 2.7971e-15
6581.7 3.2152e-15
6584.44 2.8516e-15
6587.18 2.3096e-15
6589.92 1.6096e-15
6592.66 1.4604e-15
6595.41 1.4293e-15
6598.15 1.3804e-15
6600.89 1.2832e-15
6603.63 1.4195e-15
6606.37 1.2782e-15
6609.11 1.4195e-15
6611.85 1.4312e-15
6614.59 1.2344e-15
6617.34 1.322e-15
6620.08 1.3253e-15
6622.82 1.4666e-15
6625.56 1.3424e-15
6628.3 1.2871e-15
6631.04 1.2961e-15
6633.78 1.2524e-15
6636.53 1.1276e-15
6639.27 1.2412e-15
6642.01 1.2473e-15
6644.75 1.2133e-15
6647.49 1.1196e-15
6650.23 1.093e-15
6652.97 1.13e-15
6655.71 1.3027e-15
6658.46 1.1853e-15
6661.2 1.2445e-15
6663.94 1.3441e-15
6666.68 1.3406e-15
6669.42 1.5159e-15
6672.16 1.5886e-15
6674.9 1.6432e-15
6677.65 2.0413e-15
6680.39 1.5954e-15
6683.13 1.4747e-15
6685.87 1.3395e-15
6688.61 1.2685e-15
6691.35 1.1963e-15
6694.09 1.2239e-15
6696.84 1.1914e-15
6699.58 1.4936e-15
6702.32 1.1692e-15
6705.06 1.3608e-15
6707.8 1.6566e-15
6710.54 2.4441e-15
6713.28 4.326e-15
6716.02 4.8836e-15
6718.77 3.9029e-15
6721.51 2.4159e-15
6724.25 2.1615e-15
6726.99 3.1175e-15
6729.73 3.6944e-15
6732.47 3.3432e-15
6735.21 2.3788e-15
6737.96 1.733e-15
6740.7 1.4561e-15
6743.44 1.4704e-15
6746.18 1.484e-15
6748.92 1.2901e-15
6751.66 1.1678e-15
6754.4 1.2493e-15
6757.14 1.1068e-15
6759.89 1.0453e-15
6762.63 1.1229e-15
6765.37 1.1648e-15
6768.11 1.2533e-15
6770.85 1.264e-15
6773.59 1.2186e-15
6776.33 1.2586e-15
6779.08 1.3124e-15
6781.82 1.3715e-15
6784.56 1.4075e-15
6787.3 1.3157e-15
6790.04 1.2271e-15
6792.78 1.2016e-15
6795.52 1.1459e-15
6798.26 9.5132e-16
6801.01 9.9521e-16
6803.75 1.1861e-15
6806.49 1.4119e-15
6817.6 1.2818e-15
6833.32 1.2845e-15
6849.07 1.2436e-15
6864.86 1.2377e-15
6880.68 1.2403e-15
6896.54 1.2402e-15
6912.44 1.24e-15
6928.38 1.2256e-15
6944.35 1.2511e-15
6960.36 1.228e-15
6976.4 1.2564e-15
6992.48 1.2476e-15
7008.6 1.2246e-15
7024.76 1.2021e-15
7040.95 1.2356e-15
7057.18 1.244e-15
7073.45 1.1634e-15
7089.76 1.2069e-15
7106.1 1.1929e-15
7122.49 1.1845e-15
7138.9 1.1441e-15
7155.36 1.1439e-15
7171.86 1.128e-15
7188.39 1.1098e-15
7204.96 1.1199e-15
7221.57 1.1591e-15
7238.22 1.1642e-15
7254.9 1.1748e-15
7271.62 1.1321e-15
7288.39 1.132e-15
7305.19 1.1743e-15
7322.03 1.1606e-15
7338.91 1.1578e-15
7355.83 1.1683e-15
7372.78 1.1521e-15
7389.78 1.1545e-15
7406.82 1.1464e-15
7423.89 1.1253e-15
7441.0 1.1593e-15
7458.16 1.1591e-15
7475.35 1.1536e-15
7492.58 1.1481e-15
7509.86 1.1532e-15
7527.17 1.1637e-15
7544.52 1.1555e-15
7561.91 1.142e-15
7579.34 1.1184e-15
7596.81 1.1105e-15
7614.33 1.1002e-15
7631.88 1.1e-15
7649.47 1.0973e-15
7667.11 1.0672e-15
7684.78 1.0744e-15
7702.5 1.0595e-15
7720.25 1.052e-15
7738.05 1.064e-15
7755.89 1.0136e-15
7773.77 1.0515e-15
7791.69 1.0489e-15
7809.65 1.0439e-15
7827.65 1.0655e-15
7845.7 1.0435e-15
7863.78 1.053e-15
7881.91 1.0431e-15
7900.08 1.0453e-15
7918.29 1.0143e-15
7936.55 1.0095e-15
7954.84 9.7955e-16
7973.18 1.0091e-15
7991.56 1.0206e-15
8009.98 1.0018e-15
8028.44 1.0203e-15
8046.96 1.0367e-15
8065.5 1.027e-15
8084.1 9.9193e-16
8102.73 9.6917e-16
8121.41 9.9844e-16
8140.13 9.8683e-16
8158.9 9.7536e-16
8177.71 9.5298e-16
8196.56 9.3973e-16
8215.45 9.8611e-16
8234.39 9.4372e-16
8253.37 9.8121e-16
8272.4 9.9011e-16
8291.47 9.5412e-16
8310.58 9.5394e-16
8329.74 9.2138e-16
8348.95 9.4702e-16
8368.19 9.556e-16
8387.48 9.2938e-16
8406.82 9.3996e-16
8426.2 9.4195e-16
8445.62 8.7488e-16
8465.09 9.2868e-16
8484.6 9.4576e-16
8504.16 8.7036e-16
8523.77 8.8841e-16
8543.42 9.0893e-16
8563.11 9.1085e-16
8582.85 9.2547e-16
8602.64 8.8977e-16
8622.47 8.9371e-16
8642.34 9.1435e-16
8662.26 8.7504e-16
8682.24 8.3935e-16
8702.25 8.7873e-16
8722.31 8.8873e-16
8742.42 8.9266e-16
8762.57 8.3676e-16
8782.77 8.64e-16
8803.02 8.7786e-16
8823.31 8.9607e-16
8843.65 8.8156e-16
8864.03 8.5737e-16
8884.47 8.3383e-16
8904.95 8.6296e-16
8925.48 8.6478e-16
8946.06 8.706e-16
8966.68 8.5453e-16
8987.35 8.2156e-16
9008.07 8.0455e-16
9028.83 7.9152e-16
9049.64 8.8181e-16
9070.51 8.2278e-16
9091.42 8.1695e-16
9112.37 8.5331e-16
9133.38 8.65e-16
9154.44 8.1457e-16
9175.54 8.1627e-16
9196.69 8.2937e-16
9217.89 7.9553e-16
9239.14 7.2705e-16
9260.44 8.0998e-16
9281.79 8.3058e-16
9303.18 7.8035e-16
9324.63 8.1884e-16
9346.12 8.149e-16
9367.67 8.054e-16
9389.26 8.0895e-16
9410.91 7.9585e-16
9432.6 8.0489e-16
9454.35 7.955e-16
9476.14 8.0085e-16
9497.99 7.9883e-16
9519.88 7.877e-16
9541.83 7.3836e-16
9563.83 7.7121e-16
9585.87 7.8357e-16
9607.97 7.7622e-16
9630.11 7.7426e-16
9652.32 7.6523e-16
9674.57 7.633e-16
9696.87 7.6666e-16
9719.22 7.5946e-16
9741.63 7.5233e-16
9764.08 7.5043e-16
9786.59 7.4168e-16
9809.15 7.501e-16
9831.76 7.4648e-16
9854.43 7.446e-16
9877.15 7.3931e-16
9899.92 7.3744e-16
9922.74 7.322e-16
9945.61 7.3035e-16
9968.54 7.285e-16
9991.52 7.2332e-16
10014.55 7.0833e-16
10083.97 6.9332e-16
10130.51 7.0426e-16
10177.27 6.9427e-16
10224.26 6.9076e-16
10271.44 6.8726e-16
10295.12 6.8237e-16
10510.69 6.5477e-16
10706.11 6.2289e-16
10905.15 5.9212e-16
11107.89 5.7599e-16
11288.37 5.5388e-16
11498.24 5.4127e-16
11712.02 5.2169e-16
11902.32 5.0282e-16
12095.72 4.8687e-16
12292.26 4.736e-16
12491.99 4.5963e-16
12694.97 4.4505e-16
12901.24 4.3094e-16
13110.87 4.2016e-16
13293.26 4.0683e-16
13509.26 3.9849e-16
13697.19 3.8763e-16
13887.74 3.7619e-16
14113.4 3.651e-16
14309.73 3.5515e-16
14508.8 3.5189e-16
14710.64 3.4152e-16
14915.29 3.3839e-16
15087.99 3.3374e-16
15297.88 3.3298e-16
15510.7 3.2992e-16
15690.31 3.2167e-16
15908.59 3.1004e-16
16092.8 3.0932e-16
16316.68 3.0578e-16
16505.6 2.9677e-16
16696.73 2.9001e-16
16890.08 2.8146e-16
17085.66 2.7316e-16
17283.49 2.6146e-16
17483.62 2.5434e-16
17686.08 2.4514e-16
17890.88 2.3736e-16
18098.03 2.2668e-16
18307.6 2.205e-16
18519.6 2.1351e-16
18690.95 2.039e-16
18907.38 1.9788e-16
19082.34 1.9383e-16
19303.31 1.8682e-16
19481.9 1.7882e-16
19707.5 1.7395e-16
19889.86 1.6843e-16
20120.16 1.6497e-16
20306.34 1.5864e-16
20494.24 1.5574e-16
20683.85 1.5046e-16
20923.37 1.4636e-16
21116.98 1.427e-16
21312.36 1.3881e-16
21509.57 1.3534e-16
21708.58 1.3014e-16
21909.45 1.2747e-16
22112.19 1.2371e-16
22316.78 1.1979e-16
22523.28 1.1679e-16
22679.39 1.1361e-16
22889.25 1.0266e-16
23101.03 1.0196e-16
23314.79 8.9828e-17
23476.41 8.5195e-17
23693.62 8.6181e-17
23912.87 7.8961e-17
24078.61 7.6986e-17
24301.42 7.6632e-17
24526.26 7.1848e-17
24696.28 7.1682e-17
24924.78 6.374e-17
25097.56 6.3301e-17
25271.52 6.3301e-17
25505.36 6.2289e-17
25682.14 6.2433e-17
25919.79 6.0592e-17
26099.47 6.0313e-17
26280.37 5.867e-17
26523.55 5.7998e-17
26707.39 5.6678e-17
26892.54 5.5772e-17
27078.93 5.4754e-17
27329.5 5.3507e-17
27518.93 5.2652e-17
27709.67 5.1335e-17
27901.76 5.0631e-17
28095.15 4.9478e-17
28289.91 4.8575e-17
28485.99 4.7469e-17
28683.47 4.6282e-17
28882.28 4.5542e-17
29082.5 4.4608e-17
29284.07 4.3593e-17
29487.08 4.26e-17
29691.46 4.1823e-17
29897.28 4.0871e-17
30104.51 4.0032e-17
30313.17 3.9031e-17
30523.31 3.8407e-17
30734.87 3.7619e-17
30876.76 3.6848e-17
31090.77 3.6092e-17
31306.3 3.5433e-17
31523.29 3.4707e-17
31668.78 3.3995e-17
31888.32 3.3298e-17
32109.34 3.2615e-17
32331.93 3.2019e-17
32481.16 3.1363e-17
32706.29 3.0861e-17
32933.02 3.0438e-17
33085.02 2.9951e-17
33314.38 2.8934e-17
33468.14 2.8276e-17
33700.11 2.7632e-17
33933.73 2.7003e-17
34090.35 2.6388e-17
34326.67 2.5907e-17
34485.11 2.5434e-17
34724.13 2.4855e-17
34884.43 2.4401e-17
35126.22 2.3901e-17
35288.34 2.3411e-17
35532.98 2.293e-17
35696.98 2.246e-17
35861.77 2.205e-17
36110.34 2.1648e-17
36277.0 2.1204e-17
36528.49 2.0769e-17
36697.08 2.039e-17
36866.45 1.988e-17
37122.02 1.9517e-17
37293.36 1.9205e-17
37465.48 1.8725e-17
37725.2 1.851e-17
37899.32 1.8172e-17
38074.24 1.7841e-17
38338.18 1.7555e-17
38515.13 1.7235e-17
38692.94 1.6882e-17
38871.53 1.6612e-17
39140.95 1.6308e-17
39321.65 1.6085e-17
39503.14 1.5755e-17
39685.46 1.5503e-17
39868.67 1.5185e-17
40145.01 1.4942e-17
40330.3 1.4737e-17
40516.48 1.4435e-17
40703.49 1.427e-17
40891.35 1.4074e-17
41080.08 1.3849e-17
41269.73 1.3659e-17
41460.21 1.344e-17
41747.62 1.3226e-17
41940.3 1.3044e-17
42133.88 1.2865e-17
42328.35 1.2718e-17
42523.76 1.2514e-17
42720.02 1.2371e-17
42917.2 1.1842e-17
43115.33 1.1361e-17
43314.32 1.144e-17
43514.24 1.095e-17
43715.12 1.0725e-17
43916.89 1.0578e-17
44119.59 1.0196e-17
44323.22 1.0125e-17
44527.84 9.9865e-18
44733.36 9.692e-18
44939.82 9.7592e-18
45147.29 9.581e-18
45251.35 9.3845e-18
45460.21 9.4062e-18
45670.03 9.3199e-18
45880.87 9.0868e-18
46092.63 9.1709e-18
46305.37 9.0451e-18
46519.14 8.9828e-18
46733.85 8.9828e-18
46949.55 8.9005e-18
47057.77 8.8189e-18
47275.01 8.88e-18
47493.21 8.7582e-18
47712.41 8.7179e-18
47932.68 8.6779e-18
48153.91 8.5785e-18
48264.91 8.6579e-18
48487.67 8.5785e-18
48711.52 8.4999e-18
48936.34 8.4803e-18
49049.15 8.422e-18
49275.53 8.4026e-18
49503.01 8.364e-18
49731.49 8.3833e-18
49846.13 8.3255e-18
50076.24 8.3255e-18
50307.37 8.2873e-18
50539.56 8.2302e-18
50656.06 8.2302e-18
50772.82 8.2302e-18
50889.91 8.2302e-18
51007.22 8.2113e-18
51124.79 8.1924e-18
51242.64 8.1736e-18
51360.76 8.1736e-18
51479.15 8.1736e-18
51597.87 8.1736e-18
51716.81 8.1924e-18
51836.01 8.1924e-18
51955.5 8.1736e-18
52075.26 8.1548e-18
52195.3 8.1548e-18
52315.61 8.1548e-18
52436.26 8.1548e-18
52557.13 8.1736e-18
52678.28 8.2113e-18
52799.7 8.2113e-18
52921.41 8.1736e-18
53043.4 8.1548e-18
53165.73 8.1548e-18
53288.28 8.1736e-18
53411.11 8.1924e-18
53534.23 8.1924e-18
53657.63 8.1924e-18
53781.31 8.2113e-18
53905.28 8.2113e-18
54029.6 8.2302e-18
54154.14 8.2302e-18
54278.97 8.2113e-18
54404.09 8.2302e-18
54529.49 8.2492e-18
54655.18 8.2492e-18
54781.17 8.2492e-18
54907.5 8.2682e-18
55034.07 8.2682e-18
55160.93 8.2682e-18
55288.08 8.3255e-18
55415.52 8.3447e-18
55543.26 8.3255e-18
55671.35 8.3447e-18
55799.67 8.364e-18
55928.3 8.364e-18
56057.22 8.3833e-18
56186.43 8.4026e-18
56315.95 8.4026e-18
56445.76 8.422e-18
56575.93 8.4608e-18
56706.34 8.4803e-18
56837.06 8.4803e-18
56968.07 8.4803e-18
57099.38 8.5195e-18
57231.0 8.5588e-18
57362.99 8.5785e-18
57495.21 8.5983e-18
57627.74 8.6181e-18
57760.58 8.638e-18
57893.72 8.6579e-18
58027.17 8.6779e-18
58160.93 8.6979e-18
58295.06 8.7179e-18
58429.43 8.7582e-18
58564.11 8.7783e-18
58699.11 8.7986e-18
58834.41 8.8392e-18
58970.03 8.8596e-18
59243.53 5.1883e-18
59545.08 8.2208e-18
59846.52 1.21e-17
60147.97 1.2763e-17
60449.42 1.3227e-17
60750.87 8.6346e-18
61052.42 8.3116e-18
61353.87 8.6777e-18
61655.31 1.1128e-17
61956.77 2.2187e-17
62258.21 2.0233e-17
62559.76 1.4019e-17
62861.21 1.5359e-17
63162.66 1.2197e-17
63464.11 1.0863e-17
63765.55 1.1051e-17
64067.1 9.0026e-18
64368.55 8.0195e-18
64670.0 7.9449e-18
64971.45 8.6066e-18
65272.9 7.8474e-18
65574.45 7.1979e-18
65875.89 8.767e-18
66177.34 7.0403e-18
66478.79 6.3345e-18
66780.24 2.8238e-18
67081.79 7.778e-18
67383.24 2.3764e-18
67684.69 6.6141e-18
67986.13 6.3317e-18
68287.59 8.3679e-18
68589.13 7.6159e-18
68890.58 7.5867e-18
69192.03 7.3479e-18
69493.48 6.966e-18
69794.93 1.3278e-17
70096.48 7.4001e-18
70397.93 8.685e-18
70699.37 1.0007e-17
71000.82 9.4119e-18
71302.27 8.3672e-18
71603.82 7.2475e-18
71905.27 5.9976e-18
72206.72 1.045e-17
72508.16 1.1825e-17
72809.61 1.0562e-17
73111.16 6.1886e-18
73412.61 1.0043e-17
73714.06 1.0309e-17
74015.51 1.1645e-17
74316.96 1.5752e-17
74618.5 2.1088e-17
74919.95 1.4736e-17
75221.4 1.7215e-17
75522.85 1.3895e-17
76125.75 1.7374e-17
76728.74 1.3668e-17
77331.64 1.435e-17
77934.54 1.1073e-17
78537.53 1.2025e-17
79140.44 1.2692e-17
79743.43 1.0767e-17
80346.33 9.6256e-18
80949.23 8.9008e-18
81552.21 7.534e-18
82155.12 7.6122e-18
82758.02 7.5232e-18
83361.01 9.1972e-18
83963.91 8.7889e-18
84566.8 7.7009e-18
85169.81 1.0616e-17
85772.7 1.0668e-17
86375.7 1.0829e-17
86978.6 9.6555e-18
87581.5 9.5038e-18
88184.49 9.8456e-18
88787.39 7.9124e-18
89390.29 1.1994e-17
89993.28 1.8857e-17
90596.18 1.0186e-17
91199.07 8.6084e-18
91802.07 8.0677e-18
92404.97 8.5409e-18
93007.97 8.6048e-18
93610.86 8.437e-18
94213.76 8.2095e-18
94816.75 7.9278e-18
95419.65 7.8734e-18
96022.55 8.4257e-18
96625.55 8.0866e-18
97228.44 8.1117e-18
97831.34 8.5216e-18
98434.34 8.5213e-18
99037.24 9.0568e-18
99640.24 9.1649e-18
100243.13 9.1726e-18
100846.03 1.0607e-17
101449.03 1.0217e-17
102051.92 9.3698e-18
102654.83 9.8099e-18
103257.81 1.1307e-17
103860.72 9.7944e-18
104463.61 2.8728e-17
105066.61 6.8003e-17
105669.51 4.1051e-17
106272.51 9.5198e-18
106875.4 1.0055e-17
107478.3 1.0656e-17
108081.3 1.1071e-17
108684.2 1.0866e-17
109287.09 1.1274e-17
109890.09 1.2299e-17
110492.99 1.1637e-17
111095.89 1.2342e-17
111698.88 1.4335e-17
112301.78 1.6823e-17
112904.77 1.6792e-17
113507.67 1.4528e-17
114110.57 1.5619e-17
114713.57 1.435e-17
115316.46 1.3676e-17
115919.36 1.4234e-17
116522.35 1.4416e-17
117125.25 1.4097e-17
117728.15 1.4568e-17
118331.14 1.3839e-17
118934.04 1.475e-17
119537.05 1.4823e-17
120139.94 1.4669e-17
120742.83 1.5467e-17
121345.84 1.5529e-17
121948.73 1.5012e-17
122551.63 1.5886e-17
123154.62 1.7374e-17
123757.52 1.779e-17
124360.42 1.705e-17
124963.41 1.7104e-17
125566.31 1.7924e-17
126169.31 1.782e-17
126772.2 1.782e-17
127375.11 1.9875e-17
127978.1 2.5227e-17
128581.0 2.4047e-17
129183.9 1.9032e-17
129786.9 1.819e-17
130389.79 1.8177e-17
130992.68 1.8367e-17
131595.68 1.9129e-17
132198.58 1.9143e-17
132801.47 1.9083e-17
133404.48 1.8694e-17
134007.37 1.8467e-17
134610.37 1.9225e-17
135213.27 1.9355e-17
135816.16 1.985e-17
136419.16 1.9724e-17
137022.06 1.9555e-17
137624.95 1.9857e-17
138227.96 2.0129e-17
138830.85 1.9588e-17
139433.74 2.0145e-17
140036.75 2.007e-17
140639.64 2.0353e-17
141242.64 2.0163e-17
141845.54 1.9243e-17
142448.43 1.8758e-17
143051.44 1.8385e-17
143654.33 1.8012e-17
144257.22 1.8311e-17
145315.48 1.9134e-17
146159.63 1.8288e-17
147003.76 2.0304e-17
147847.89 2.0107e-17
148691.93 1.9203e-17
149536.06 2.0971e-17
150380.2 1.9291e-17
151224.24 1.9257e-17
152068.37 2.135e-17
152912.5 2.0311e-17
153756.54 1.7961e-17
154600.67 3.367e-17
155444.82 7.2525e-17
156288.86 5.9107e-17
157132.99 1.8465e-17
157977.13 2.0423e-17
158821.15 2.1612e-17
159665.3 2.2298e-17
160509.43 2.067e-17
161353.57 2.1984e-17
162197.6 2.1854e-17
163041.75 2.1566e-17
163885.87 2.1392e-17
164729.92 2.1689e-17
165574.04 2.0882e-17
166418.17 2.0377e-17
167262.23 2.1206e-17
168106.35 2.1413e-17
168950.5 2.0732e-17
169794.52 2.1813e-17
170638.67 2.4113e-17
171482.8 2.2282e-17
172326.82 2.2129e-17
173170.97 2.3132e-17
174015.11 2.2509e-17
174859.24 2.2662e-17
175703.28 2.3528e-17
176547.43 2.3775e-17
177391.54 2.3584e-17
178235.6 2.3861e-17
179079.73 2.274e-17
179923.86 2.34e-17
180767.9 2.4619e-17
181612.02 2.4441e-17
182456.17 2.4622e-17
183300.21 2.4069e-17
184144.34 2.3102e-17
184988.47 2.4799e-17
185832.5 2.4569e-17
186676.65 4.983e-17
187520.79 4.5751e-17
188364.93 2.7784e-17
189208.95 2.5155e-17
190053.1 2.701e-17
190897.22 2.6475e-17
191741.27 2.5296e-17
192585.4 2.5538e-17
193429.54 2.5412e-17
194273.58 2.5143e-17
195117.72 2.4623e-17
195961.84 2.4258e-17
196805.88 2.5737e-17
197650.01 2.6363e-17
198494.15 2.705e-17
199338.2 2.6753e-17
200182.32 2.6916e-17
201026.47 2.6845e-17
201870.6 2.586e-17
202714.62 2.5729e-17
203558.77 2.7736e-17
205246.94 2.6246e-17
206935.21 2.693e-17
208623.4 2.7736e-17
210311.55 2.6993e-17
211999.82 2.7872e-17
213687.99 2.7641e-17
215376.27 2.7474e-17
217064.44 2.8061e-17
218752.62 2.8129e-17
220440.9 2.7919e-17
222129.07 2.7681e-17
223817.23 2.7606e-17
225505.49 2.7347e-17
227193.68 2.7886e-17
228881.95 2.78e-17
230570.12 2.872e-17
232258.29 2.8107e-17
233946.57 2.8028e-17
235634.74 2.9088e-17
237322.92 2.8851e-17
239011.17 2.8669e-17
240699.35 2.8497e-17
242387.62 2.9825e-17
244075.79 2.942e-17
245763.96 2.9128e-17
247452.24 2.9887e-17
249140.42 2.9962e-17
250828.59 3.0427e-17
252516.87 3.0602e-17
254205.04 3.0396e-17
255893.29 3.082e-17
257581.46 3.0678e-17
259269.64 3.1743e-17
260957.92 3.1612e-17
262646.09 3.0882e-17
264334.26 3.2024e-17
266022.53 3.1224e-17
267710.7 3.0749e-17
269398.96 3.0755e-17
271087.14 3.0325e-17
272775.34 3.0227e-17
274463.61 3.0634e-17
276151.75 3.0646e-17
277839.92 3.0775e-17
279528.22 3.0493e-17
281216.39 3.1267e-17
282904.65 3.0782e-17
284592.83 3.0712e-17
286281.0 3.0803e-17
287969.26 3.0247e-17
289657.43 3.0867e-17
291345.61 3.0609e-17
293033.87 3.1008e-17
294722.04 3.0259e-17
296410.31 3.0403e-17
298098.51 3.0448e-17
299786.69 3.0501e-17
301474.95 3.0305e-17
303163.12 2.986e-17
304851.3 3.0338e-17
306539.56 3.0635e-17
308227.73 3.0204e-17
309916.0 3.0768e-17
311604.17 2.9779e-17
313292.34 2.9639e-17
314980.61 3.1174e-17
316668.81 3.0789e-17
318356.98 3.0521e-17
320045.25 3.0198e-17
321733.39 3.0222e-17
323421.69 3.0392e-17
325109.86 3.0245e-17
326798.03 3.0463e-17
328486.3 3.1467e-17
330174.47 3.1139e-17
331862.64 3.4194e-17
333550.94 4.481e-17
335239.11 4.7585e-17
336927.34 3.2548e-17
338615.52 3.0601e-17
340303.72 3.0257e-17
341991.95 3.2456e-17
343680.13 3.3023e-17
345368.3 3.2806e-17
347056.6 3.8868e-17
348744.74 3.9126e-17
