# col1 col2
# An Atlas of Galaxy Spectral Energy Distributions from the Ultraviolet to the Mid-Infrared
# Brown et al. (2014)
# http://dx.doi.org/10.5072/03/529D3551F0117
# 
# Column 1 : Restframe Wavelength (Angstrom)
# Column 2 : Flux per unit wavelength (ergs/s/cm^2/Angstrom)
# Column 3 : Observed wavelength (Angstrom)
# Column 4 : Source (0 = model, 1 = Optical Spectrum, 2 = Akari, 3 = Spitzer IRS)
# 
100.01 7.7676e-33
102.1 1.4034e-32
104.0 2.2966e-32
105.94 3.8637e-32
107.91 6.47e-32
109.91 1.3546e-31
114.04 3.3854e-31
118.04 7.7165e-31
121.07 3.1936e-30
125.04 6.9516e-30
127.07 1.0069e-29
127.95 1.2132e-29
130.93 2.0455e-29
132.14 2.5927e-29
133.98 3.6113e-29
137.1 6.2447e-29
139.97 1.0009e-28
142.9 2.1839e-28
146.91 4.8982e-28
151.02 8.5475e-28
154.9 1.4711e-27
158.87 2.4744e-27
161.83 3.6002e-27
165.98 5.8361e-27
169.84 9.267e-27
173.0 1.2965e-26
177.03 1.9934e-26
179.91 2.7255e-26
181.99 3.3447e-26
185.8 4.9793e-26
191.01 7.9785e-26
194.11 1.0538e-25
198.17 1.5051e-25
201.86 2.1154e-25
205.14 2.7179e-25
209.92 3.9629e-25
215.8 6.4525e-25
219.81 8.6803e-25
222.87 1.0725e-24
227.01 1.4262e-24
230.17 2.5237e-24
233.91 4.9757e-24
239.91 8.4248e-24
246.06 1.1201e-23
251.79 1.5667e-23
257.07 1.6739e-23
260.04 2.2263e-23
264.27 2.7758e-23
269.18 3.4606e-23
274.19 4.2747e-23
279.28 5.2198e-23
283.82 6.3744e-23
289.77 7.6939e-23
295.83 9.7916e-23
301.33 1.1235e-22
308.35 1.4529e-22
317.72 2.0549e-22
328.13 2.7751e-22
338.1 3.6711e-22
348.37 4.7786e-22
357.31 6.0099e-22
365.63 7.5242e-22
375.01 9.2257e-22
384.63 1.1182e-21
395.41 1.4093e-21
404.62 1.728e-21
414.04 2.0422e-21
421.74 2.3481e-21
429.58 2.6874e-21
440.6 3.2568e-21
450.86 3.822e-21
460.31 4.3835e-21
469.94 5.0974e-21
479.78 5.9274e-21
489.83 6.7979e-21
500.09 7.9044e-21
505.88 1.1287e-20
511.74 2.584e-20
520.05 2.8502e-20
529.72 3.2315e-20
539.57 3.4508e-20
549.6 4.6497e-20
559.82 5.9555e-20
570.22 7.168e-20
579.49 7.6373e-20
590.26 9.5369e-20
599.85 1.0446e-19
609.6 1.2866e-19
619.51 1.5957e-19
629.57 1.8258e-19
639.8 2.0368e-19
650.2 2.3957e-19
657.73 2.6366e-19
665.34 2.9626e-19
674.6 3.3129e-19
685.56 3.5048e-19
695.1 4.479e-19
704.77 4.5888e-19
716.22 5.863e-19
726.18 6.4807e-19
734.59 7.1318e-19
744.81 8.2165e-19
755.17 9.1657e-19
765.68 1.0177e-18
774.54 1.154e-18
785.32 1.3081e-18
794.41 1.4361e-18
805.46 1.5727e-18
814.79 1.7146e-18
824.23 1.9439e-18
835.69 1.8455e-18
845.37 2.2783e-18
855.16 2.4838e-18
865.06 2.7645e-18
875.08 3.0557e-18
885.21 3.4009e-18
895.46 3.7245e-18
905.83 3.9677e-18
914.21 6.069e-18
924.8 3.7721e-17
935.51 8.3374e-17
944.16 1.7084e-16
955.09 2.4324e-16
963.93 3.1159e-16
975.09 8.2796e-17
984.12 3.6859e-16
995.51 3.7841e-16
1004.72 4.7368e-16
1014.02 4.3253e-16
1025.76 1.7759e-16
1035.25 3.6976e-16
1044.83 6.3889e-16
1054.5 6.6824e-16
1064.26 6.0454e-16
1074.1 7.0294e-16
1084.04 6.3592e-16
1094.07 7.6716e-16
1104.2 7.6447e-16
1114.41 7.8313e-16
1124.72 7.5041e-16
1135.13 8.7249e-16
1145.63 8.3409e-16
1156.24 8.8851e-16
1164.25 9.381e-16
1175.02 7.6681e-16
1185.89 9.4215e-16
1194.12 7.5456e-16
1205.16 6.0272e-16
1216.32 3.0237e-16
1224.75 6.8564e-16
1236.08 9.9426e-16
1244.65 1.1222e-15
1256.16 1.1441e-15
1264.87 1.0641e-15
1273.64 1.278e-15
1285.42 1.3456e-15
1294.33 1.2287e-15
1306.31 1.2411e-15
1315.37 1.4333e-15
1324.48 1.4251e-15
1333.66 1.3721e-15
1346.0 1.5231e-15
1355.33 1.5249e-15
1364.73 1.468e-15
1374.19 1.5319e-15
1383.71 1.5839e-15
1396.52 1.4793e-15
1406.2 1.5507e-15
1415.94 1.6107e-15
1425.76 1.6425e-15
1435.64 1.6671e-15
1442.27 1.7443e-15
1445.59 1.7678e-15
1455.61 1.7697e-15
1465.7 1.7233e-15
1475.86 1.7411e-15
1486.09 1.7713e-15
1496.4 1.8144e-15
1503.3 1.7962e-15
1513.72 1.7014e-15
1517.21 1.7808e-15
1524.21 1.7711e-15
1534.78 1.6622e-15
1545.42 1.7787e-15
1556.13 1.724e-15
1563.31 1.7625e-15
1574.15 1.8774e-15
1585.06 1.9452e-15
1596.05 2.0155e-15
1603.42 1.9769e-15
1614.53 2.0016e-15
1625.72 1.9623e-15
1633.23 2.0624e-15
1644.55 2.1026e-15
1655.95 2.0097e-15
1663.59 2.1813e-15
1671.27 2.0479e-15
1675.12 2.2085e-15
1686.73 2.2775e-15
1694.52 2.2133e-15
1706.26 2.1847e-15
1714.14 2.1626e-15
1726.02 2.1743e-15
1733.99 2.285e-15
1746.01 2.2659e-15
1754.07 2.3812e-15
1766.23 2.2497e-15
1774.38 2.3533e-15
1786.68 2.3933e-15
1794.92 2.4978e-15
1803.21 2.5124e-15
1815.71 2.4401e-15
1824.09 2.4771e-15
1836.73 2.4505e-15
1845.21 2.3269e-15
1853.73 2.3676e-15
1866.58 2.4356e-15
1875.19 2.5535e-15
1883.85 2.4527e-15
1896.91 2.404e-15
1905.66 2.5144e-15
1914.46 2.4886e-15
1923.3 2.4801e-15
1936.63 2.5277e-15
1945.57 2.656e-15
1954.55 2.557e-15
1968.1 2.7162e-15
1977.18 2.7827e-15
1981.74 2.699e-15
1995.48 2.6634e-15
2004.69 2.716e-15
2013.94 2.7003e-15
2023.23 2.779e-15
2037.26 2.7359e-15
2046.66 2.8027e-15
2056.11 2.7292e-15
2065.6 2.7765e-15
2075.13 2.9172e-15
2079.92 2.8556e-15
2084.71 2.9136e-15
2094.34 2.8307e-15
2104.0 2.8797e-15
2113.71 2.9093e-15
2123.47 2.9596e-15
2133.27 2.8424e-15
2143.12 2.9183e-15
2153.01 2.9824e-15
2162.95 2.9242e-15
2172.93 2.9271e-15
2182.96 2.9435e-15
2193.04 3.057e-15
2203.16 3.0041e-15
2213.33 2.9251e-15
2223.55 2.8943e-15
2233.81 3.0547e-15
2244.12 2.9742e-15
2254.48 2.9227e-15
2264.88 2.9545e-15
2275.34 3.0448e-15
2285.84 3.1211e-15
2296.39 3.0203e-15
2306.99 3.0747e-15
2317.64 3.0378e-15
2322.98 2.6665e-15
2333.71 2.9765e-15
2344.48 2.8871e-15
2355.3 3.0848e-15
2366.17 2.9376e-15
2377.09 3.0463e-15
2382.57 2.8851e-15
2393.57 3.0334e-15
2404.62 2.9834e-15
2415.72 3.0373e-15
2426.87 3.1936e-15
2432.46 3.1165e-15
2443.69 3.2618e-15
2454.97 3.2453e-15
2466.3 3.2512e-15
2477.69 3.1904e-15
2483.4 3.2602e-15
2494.86 3.1699e-15
2506.38 3.4265e-15
2512.15 3.2155e-15
2517.94 3.2558e-15
2523.75 3.1627e-15
2535.4 3.2053e-15
2547.1 3.2188e-15
2552.97 3.4049e-15
2564.76 3.38e-15
2576.59 3.5297e-15
2582.54 3.5412e-15
2594.46 3.5317e-15
2606.43 3.4579e-15
2612.44 3.4453e-15
2624.5 3.5815e-15
2636.61 3.6889e-15
2642.69 3.9657e-15
2654.89 4.066e-15
2667.14 3.8549e-15
2673.29 3.9759e-15
2685.63 4.0484e-15
2698.03 3.9007e-15
2704.25 4.0047e-15
2716.73 3.8586e-15
2722.99 3.8446e-15
2735.56 4.0246e-15
2741.87 3.6741e-15
2754.52 3.7759e-15
2767.24 3.9345e-15
2773.62 4.0769e-15
2786.42 3.9283e-15
2792.84 3.3162e-15
2805.73 3.5361e-15
2812.2 4.1587e-15
2825.18 4.3038e-15
2838.22 4.2436e-15
2844.76 4.1513e-15
2857.89 4.0279e-15
2864.48 4.3603e-15
2877.7 4.4404e-15
2884.34 4.4552e-15
2897.65 4.4851e-15
2911.03 4.8048e-15
2931.2 4.7211e-15
2951.52 4.7143e-15
2971.98 4.8172e-15
2992.58 4.8886e-15
3013.33 4.984e-15
3027.24 5.0642e-15
3048.22 5.1395e-15
3069.35 5.192e-15
3090.62 5.2694e-15
3112.05 5.3479e-15
3126.41 5.3229e-15
3148.08 5.39e-15
3169.91 5.5086e-15
3191.88 5.3641e-15
3206.61 5.5779e-15
3228.84 5.4443e-15
3251.22 5.8133e-15
3273.76 6.0661e-15
3288.87 6.094e-15
3311.66 6.1151e-15
3319.3 6.0521e-15
3326.95 6.0871e-15
3334.62 6.3083e-15
3342.31 5.9213e-15
3350.01 6.1648e-15
3357.73 6.0733e-15
3365.47 5.5967e-15
3373.23 5.5904e-15
3381.01 5.9013e-15
3388.8 6.2728e-15
3396.61 6.0949e-15
3404.44 6.2875e-15
3412.29 6.0953e-15
3420.16 6.3461e-15
3428.04 6.4717e-15
3435.94 6.5695e-15
3443.87 6.0541e-15
3451.8 6.6768e-15
3459.76 6.4281e-15
3467.74 6.4506e-15
3475.73 6.624e-15
3483.74 6.556e-15
3491.78 6.8103e-15
3499.82 6.2893e-15
3507.89 6.7286e-15
3515.98 6.4158e-15
3524.08 6.5702e-15
3532.21 6.7905e-15
3540.35 6.9379e-15
3548.51 7.2369e-15
3556.69 7.1102e-15
3564.89 7.1814e-15
3573.11 6.6152e-15
3581.35 6.5746e-15
3589.6 6.0982e-15
3597.88 6.7691e-15
3606.17 6.8369e-15
3607.63 5.23e-15
3610.33 8.24e-15
3613.03 7.3481e-15
3615.73 7.1548e-15
3618.43 7.2853e-15
3621.13 7.5238e-15
3623.83 6.8559e-15
3626.53 8.4765e-15
3629.23 6.1246e-15
3631.93 5.5262e-15
3634.63 7.1231e-15
3637.33 9.8258e-15
3640.03 7.5587e-15
3642.73 8.5497e-15
3645.43 8.9765e-15
3648.13 7.0858e-15
3650.83 7.2047e-15
3653.53 9.321e-15
3656.23 6.4731e-15
3658.93 8.5858e-15
3661.63 7.9489e-15
3664.33 5.7074e-15
3667.03 7.6007e-15
3669.73 7.9914e-15
3672.43 7.2205e-15
3675.13 6.89e-15
3677.83 6.8593e-15
3680.53 5.2113e-15
3683.23 6.8807e-15
3685.93 7.6375e-15
3688.63 7.0549e-15
3691.33 9.2803e-15
3694.03 7.2064e-15
3696.73 7.2763e-15
3699.43 8.4498e-15
3702.13 7.6705e-15
3704.83 8.3039e-15
3707.53 8.7477e-15
3710.23 8.257e-15
3712.93 7.6418e-15
3715.63 8.5367e-15
3718.33 9.6157e-15
3721.03 1.2699e-14
3723.73 1.7668e-14
3726.43 1.7515e-14
3729.13 1.3098e-14
3731.83 1.0908e-14
3734.53 8.321e-15
3737.23 6.9186e-15
3739.93 6.7954e-15
3742.63 6.8914e-15
3745.34 6.7688e-15
3748.04 8.6441e-15
3750.74 8.2398e-15
3753.44 7.6229e-15
3756.14 8.6914e-15
3758.84 8.368e-15
3761.54 8.0309e-15
3764.24 6.81e-15
3766.94 8.2481e-15
3769.64 7.9566e-15
3772.34 8.7018e-15
3775.04 8.4754e-15
3777.74 1.1055e-14
3780.44 1.0953e-14
3783.14 8.7871e-15
3785.84 1.0562e-14
3788.54 8.8582e-15
3791.24 8.2967e-15
3793.94 7.9811e-15
3796.64 8.1478e-15
3799.34 8.0957e-15
3802.04 1.0019e-14
3804.74 9.415e-15
3807.44 9.0627e-15
3810.14 9.4861e-15
3812.84 9.3754e-15
3815.54 8.2225e-15
3818.24 9.3589e-15
3820.94 9.3665e-15
3823.64 8.922e-15
3826.34 7.447e-15
3829.04 7.9361e-15
3831.74 7.2914e-15
3834.44 8.5753e-15
3837.14 8.0484e-15
3839.84 8.8694e-15
3842.54 9.2311e-15
3845.24 9.8534e-15
3847.94 1.084e-14
3850.64 1.0114e-14
3853.34 1.0908e-14
3856.04 1.0755e-14
3858.74 1.1226e-14
3861.44 1.103e-14
3864.14 1.1367e-14
3866.84 1.1273e-14
3869.54 1.108e-14
3872.24 9.3874e-15
3874.94 9.8207e-15
3877.64 9.4142e-15
3880.34 1.0065e-14
3883.04 8.3216e-15
3885.74 8.5232e-15
3888.44 8.2018e-15
3891.14 9.4308e-15
3893.84 8.4944e-15
3896.54 9.6132e-15
3899.24 1.0398e-14
3901.94 1.0756e-14
3904.64 1.1152e-14
3907.34 1.1148e-14
3910.04 1.1816e-14
3912.74 1.0787e-14
3915.44 1.1214e-14
3918.14 1.166e-14
3920.84 1.076e-14
3923.54 1.0258e-14
3926.24 8.264e-15
3928.94 8.2031e-15
3931.64 7.618e-15
3934.34 9.6046e-15
3937.04 9.8813e-15
3939.74 1.0422e-14
3942.44 1.1238e-14
3945.14 1.1505e-14
3947.84 1.1882e-14
3950.54 1.1103e-14
3953.24 1.1573e-14
3955.94 1.133e-14
3958.64 9.7342e-15
3961.34 9.8145e-15
3964.04 7.9027e-15
3966.74 8.038e-15
3969.44 8.4669e-15
3972.14 8.7116e-15
3974.84 9.38e-15
3977.54 1.0309e-14
3980.24 1.0839e-14
3982.94 1.1594e-14
3985.64 1.2492e-14
3988.34 1.2579e-14
3991.04 1.235e-14
3993.74 1.2256e-14
3996.44 1.2598e-14
3999.14 1.2736e-14
4001.84 1.3533e-14
4004.54 1.3569e-14
4007.24 1.3486e-14
4009.94 1.408e-14
4012.64 1.3857e-14
4015.34 1.376e-14
4018.04 1.3494e-14
4020.74 1.2844e-14
4023.44 1.3387e-14
4026.14 1.2531e-14
4028.84 1.3282e-14
4031.55 1.3553e-14
4034.25 1.2907e-14
4036.95 1.3019e-14
4039.65 1.357e-14
4042.35 1.2875e-14
4045.05 1.2909e-14
4047.75 1.3361e-14
4050.45 1.2787e-14
4053.15 1.2798e-14
4055.85 1.3504e-14
4058.55 1.2578e-14
4061.25 1.3183e-14
4063.95 1.2533e-14
4066.65 1.1945e-14
4069.35 1.2332e-14
4072.05 1.2087e-14
4074.75 1.272e-14
4077.45 1.2414e-14
4080.15 1.1876e-14
4082.85 1.1815e-14
4085.55 1.2295e-14
4088.25 1.2686e-14
4090.95 1.2007e-14
4093.65 1.1559e-14
4096.35 1.1276e-14
4099.05 1.0939e-14
4101.75 1.0945e-14
4104.45 1.1623e-14
4107.15 1.1764e-14
4109.85 1.2461e-14
4112.55 1.3075e-14
4115.25 1.2413e-14
4117.95 1.2105e-14
4120.65 1.2686e-14
4123.35 1.3395e-14
4126.05 1.3207e-14
4128.75 1.2781e-14
4131.45 1.2891e-14
4134.15 1.2746e-14
4136.85 1.3577e-14
4139.55 1.3197e-14
4142.25 1.2899e-14
4144.95 1.2514e-14
4147.65 1.2891e-14
4150.35 1.323e-14
4153.05 1.3028e-14
4155.75 1.2399e-14
4158.45 1.2515e-14
4161.15 1.2714e-14
4163.85 1.3335e-14
4166.55 1.3898e-14
4169.25 1.2501e-14
4171.95 1.2769e-14
4174.65 1.25e-14
4177.35 1.3237e-14
4180.05 1.328e-14
4182.75 1.3528e-14
4185.45 1.3159e-14
4188.15 1.381e-14
4190.85 1.4109e-14
4193.55 1.3043e-14
4196.25 1.191e-14
4198.95 1.2672e-14
4201.65 1.3164e-14
4204.35 1.2732e-14
4207.05 1.2936e-14
4209.75 1.3482e-14
4212.45 1.3219e-14
4215.15 1.2928e-14
4217.85 1.3184e-14
4220.55 1.2493e-14
4223.25 1.1406e-14
4225.95 1.2221e-14
4228.65 1.2976e-14
4231.35 1.3233e-14
4234.05 1.429e-14
4236.75 1.339e-14
4239.45 1.2488e-14
4242.15 1.3018e-14
4244.85 1.393e-14
4247.55 1.334e-14
4250.25 1.3596e-14
4252.95 1.3364e-14
4255.65 1.3607e-14
4258.35 1.3064e-14
4261.05 1.399e-14
4263.75 1.3496e-14
4266.45 1.3111e-14
4269.15 1.3773e-14
4271.85 1.3045e-14
4274.55 1.3189e-14
4277.25 1.3044e-14
4279.95 1.3805e-14
4282.65 1.4396e-14
4285.35 1.2839e-14
4288.05 1.2956e-14
4290.75 1.3077e-14
4293.45 1.2236e-14
4296.15 1.2129e-14
4298.85 1.2039e-14
4301.55 1.199e-14
4304.25 1.1753e-14
4306.95 1.2069e-14
4309.65 1.1927e-14
4312.35 1.2765e-14
4315.05 1.3256e-14
4317.75 1.2692e-14
4320.46 1.2469e-14
4323.16 1.2086e-14
4325.86 1.2426e-14
4328.56 1.2287e-14
4331.26 1.2053e-14
4333.96 1.2912e-14
4336.66 1.2766e-14
4339.36 1.2325e-14
4342.06 1.2449e-14
4344.76 1.1193e-14
4347.46 1.1779e-14
4350.16 1.1451e-14
4352.86 1.1909e-14
4355.56 1.3673e-14
4358.26 1.4182e-14
4360.96 1.3706e-14
4363.66 1.4238e-14
4366.36 1.2845e-14
4369.06 1.4124e-14
4371.76 1.4164e-14
4374.46 1.3478e-14
4377.16 1.3564e-14
4379.86 1.2993e-14
4382.56 1.2975e-14
4385.26 1.3877e-14
4387.96 1.3366e-14
4390.66 1.3219e-14
4393.36 1.328e-14
4396.06 1.295e-14
4398.76 1.3829e-14
4401.46 1.3041e-14
4404.16 1.2847e-14
4406.86 1.4676e-14
4409.56 1.3896e-14
4412.26 1.3427e-14
4414.96 1.3901e-14
4417.66 1.4015e-14
4420.36 1.3983e-14
4423.06 1.3665e-14
4425.76 1.3698e-14
4428.46 1.3757e-14
4431.16 1.3507e-14
4433.86 1.3511e-14
4436.56 1.456e-14
4439.26 1.4128e-14
4441.96 1.465e-14
4444.66 1.4616e-14
4447.36 1.4221e-14
4450.06 1.3865e-14
4452.76 1.45e-14
4455.46 1.4362e-14
4458.16 1.3567e-14
4460.86 1.4228e-14
4463.56 1.4154e-14
4466.26 1.4123e-14
4468.96 1.48e-14
4471.66 1.5424e-14
4474.36 1.5219e-14
4477.06 1.4349e-14
4479.76 1.4335e-14
4482.46 1.4515e-14
4485.16 1.4231e-14
4487.86 1.4258e-14
4490.56 1.4943e-14
4493.26 1.4815e-14
4495.96 1.4389e-14
4498.66 1.5594e-14
4501.36 1.5291e-14
4504.06 1.5638e-14
4506.76 1.5331e-14
4509.46 1.4913e-14
4512.16 1.5132e-14
4514.86 1.5308e-14
4517.56 1.5279e-14
4520.26 1.4728e-14
4522.96 1.4274e-14
4525.66 1.3448e-14
4528.36 1.4466e-14
4531.06 1.4267e-14
4533.76 1.4797e-14
4536.46 1.464e-14
4539.16 1.5069e-14
4541.86 1.4804e-14
4544.56 1.4696e-14
4547.26 1.4697e-14
4549.96 1.4874e-14
4552.66 1.4992e-14
4555.36 1.4645e-14
4558.06 1.4932e-14
4560.76 1.4662e-14
4563.46 1.513e-14
4566.16 1.498e-14
4568.86 1.4547e-14
4571.56 1.4697e-14
4574.26 1.5143e-14
4576.96 1.4972e-14
4579.66 1.394e-14
4582.36 1.4504e-14
4585.06 1.5043e-14
4587.76 1.4617e-14
4590.46 1.4796e-14
4593.16 1.5366e-14
4595.86 1.4947e-14
4598.56 1.4726e-14
4601.26 1.4868e-14
4603.96 1.4959e-14
4606.67 1.5372e-14
4609.37 1.5771e-14
4612.07 1.5383e-14
4614.77 1.4989e-14
4617.47 1.5388e-14
4620.17 1.5226e-14
4622.87 1.5408e-14
4625.57 1.4896e-14
4628.27 1.4924e-14
4630.97 1.5458e-14
4633.67 1.4639e-14
4636.37 1.4557e-14
4639.07 1.5182e-14
4641.77 1.5299e-14
4644.47 1.492e-14
4647.17 1.5291e-14
4649.87 1.511e-14
4652.57 1.5718e-14
4655.27 1.5943e-14
4657.97 1.5643e-14
4660.67 1.5039e-14
4663.37 1.4755e-14
4666.07 1.4596e-14
4668.77 1.4678e-14
4671.47 1.471e-14
4674.17 1.4635e-14
4676.87 1.4747e-14
4679.57 1.4851e-14
4682.27 1.4802e-14
4684.97 1.4792e-14
4687.67 1.5257e-14
4690.37 1.4996e-14
4693.07 1.4607e-14
4695.77 1.4566e-14
4698.47 1.4755e-14
4701.17 1.4617e-14
4703.87 1.4707e-14
4706.57 1.4907e-14
4709.27 1.4922e-14
4711.97 1.4377e-14
4714.67 1.4726e-14
4717.37 1.5086e-14
4720.07 1.5021e-14
4722.77 1.4721e-14
4725.47 1.4892e-14
4728.17 1.4641e-14
4730.87 1.5228e-14
4733.57 1.5071e-14
4736.27 1.5251e-14
4738.97 1.5831e-14
4741.67 1.5655e-14
4744.37 1.5955e-14
4747.07 1.6264e-14
4749.77 1.5831e-14
4752.47 1.5551e-14
4755.17 1.5287e-14
4757.87 1.4722e-14
4760.57 1.4985e-14
4763.27 1.4427e-14
4765.97 1.503e-14
4768.67 1.4632e-14
4771.37 1.5383e-14
4774.07 1.5021e-14
4776.77 1.5232e-14
4779.47 1.5078e-14
4782.17 1.5263e-14
4784.87 1.5644e-14
4787.57 1.5085e-14
4790.27 1.4811e-14
4792.97 1.5023e-14
4795.67 1.4676e-14
4798.37 1.5158e-14
4801.07 1.4931e-14
4803.77 1.498e-14
4806.47 1.479e-14
4809.17 1.5447e-14
4811.87 1.5354e-14
4814.57 1.5332e-14
4817.27 1.5421e-14
4819.97 1.5611e-14
4822.67 1.4741e-14
4825.37 1.4707e-14
4828.07 1.5114e-14
4830.77 1.4583e-14
4833.47 1.5097e-14
4836.17 1.4923e-14
4838.87 1.4605e-14
4841.57 1.4992e-14
4844.27 1.4658e-14
4846.97 1.422e-14
4849.67 1.4872e-14
4852.37 1.5624e-14
4855.07 1.7276e-14
4857.77 1.863e-14
4860.47 1.8285e-14
4863.17 1.6326e-14
4865.87 1.4657e-14
4868.57 1.3858e-14
4871.27 1.3404e-14
4873.97 1.3866e-14
4876.67 1.4258e-14
4879.37 1.4482e-14
4882.07 1.3847e-14
4884.77 1.3973e-14
4887.47 1.4481e-14
4890.17 1.5102e-14
4892.88 1.5499e-14
4895.58 1.5393e-14
4898.28 1.5198e-14
4900.98 1.4882e-14
4903.68 1.51e-14
4906.38 1.4939e-14
4909.08 1.4757e-14
4911.78 1.4837e-14
4914.48 1.4479e-14
4917.18 1.3859e-14
4919.88 1.4564e-14
4922.58 1.4643e-14
4925.28 1.494e-14
4927.98 1.4791e-14
4930.68 1.469e-14
4933.38 1.4463e-14
4936.08 1.495e-14
4938.78 1.5755e-14
4941.48 1.4985e-14
4944.18 1.599e-14
4946.88 1.5244e-14
4949.58 1.5006e-14
4952.28 1.5413e-14
4954.98 1.5996e-14
4957.68 1.5851e-14
4960.38 1.5542e-14
4963.08 1.5339e-14
4965.78 1.5141e-14
4968.48 1.4944e-14
4971.18 1.5369e-14
4973.88 1.5108e-14
4976.58 1.4748e-14
4979.28 1.4336e-14
4981.98 1.4349e-14
4984.68 1.4964e-14
4987.38 1.5058e-14
4990.08 1.485e-14
4992.78 1.5484e-14
4995.48 1.5893e-14
4998.18 1.6628e-14
5000.88 1.7216e-14
5003.58 1.772e-14
5006.28 1.7084e-14
5008.98 1.5768e-14
5011.68 1.471e-14
5014.38 1.4473e-14
5017.08 1.4151e-14
5019.78 1.4873e-14
5022.48 1.5261e-14
5025.18 1.4945e-14
5027.88 1.4974e-14
5030.58 1.4682e-14
5033.28 1.4286e-14
5035.98 1.4603e-14
5038.68 1.4954e-14
5041.38 1.5188e-14
5044.08 1.4797e-14
5046.78 1.4779e-14
5049.48 1.4946e-14
5052.18 1.5463e-14
5054.88 1.516e-14
5057.58 1.5503e-14
5060.28 1.5223e-14
5062.98 1.541e-14
5065.68 1.4945e-14
5068.38 1.4611e-14
5071.08 1.495e-14
5073.78 1.4475e-14
5076.48 1.4564e-14
5079.18 1.4858e-14
5081.88 1.462e-14
5084.58 1.4648e-14
5087.28 1.4508e-14
5089.98 1.4832e-14
5092.68 1.5097e-14
5095.38 1.493e-14
5098.08 1.4469e-14
5100.78 1.4943e-14
5103.48 1.4993e-14
5106.18 1.4846e-14
5108.88 1.5211e-14
5111.58 1.531e-14
5114.28 1.5265e-14
5116.98 1.5237e-14
5119.68 1.4907e-14
5122.38 1.4799e-14
5125.08 1.4887e-14
5127.78 1.4842e-14
5130.48 1.4551e-14
5133.18 1.4806e-14
5135.88 1.5043e-14
5138.58 1.4774e-14
5141.28 1.4727e-14
5143.98 1.4716e-14
5146.68 1.4326e-14
5149.38 1.4053e-14
5152.08 1.4685e-14
5154.78 1.4618e-14
5157.48 1.5141e-14
5160.18 1.4895e-14
5162.88 1.4014e-14
5165.58 1.3284e-14
5168.28 1.3605e-14
5170.98 1.3595e-14
5173.68 1.3935e-14
5176.38 1.4224e-14
5179.09 1.4502e-14
5181.79 1.4194e-14
5184.49 1.4376e-14
5187.19 1.4241e-14
5189.89 1.4738e-14
5192.59 1.5381e-14
5195.29 1.6027e-14
5197.99 1.6315e-14
5200.69 1.5166e-14
5203.39 1.4767e-14
5206.09 1.4845e-14
5208.79 1.4896e-14
5211.49 1.4784e-14
5214.19 1.5414e-14
5216.89 1.5544e-14
5219.59 1.5192e-14
5222.29 1.5357e-14
5224.99 1.5322e-14
5227.69 1.4811e-14
5230.39 1.4559e-14
5233.09 1.5422e-14
5235.79 1.5668e-14
5238.49 1.5738e-14
5241.19 1.5899e-14
5243.89 1.5813e-14
5246.59 1.5266e-14
5249.29 1.5279e-14
5251.99 1.5769e-14
5254.69 1.5507e-14
5257.39 1.5419e-14
5260.09 1.4962e-14
5262.79 1.3979e-14
5265.49 1.4526e-14
5268.19 1.5051e-14
5270.89 1.4891e-14
5273.59 1.487e-14
5276.29 1.5692e-14
5278.99 1.5416e-14
5281.69 1.5732e-14
5284.39 1.6179e-14
5287.09 1.645e-14
5289.79 1.5859e-14
5292.49 1.5528e-14
5295.19 1.5648e-14
5297.89 1.5766e-14
5300.59 1.5773e-14
5303.29 1.623e-14
5305.99 1.6642e-14
5308.69 1.6598e-14
5311.39 1.6014e-14
5314.09 1.6054e-14
5316.79 1.6061e-14
5319.49 1.6032e-14
5322.19 1.5697e-14
5324.89 1.5361e-14
5327.59 1.5001e-14
5330.29 1.5415e-14
5332.99 1.5375e-14
5335.69 1.5958e-14
5338.39 1.5844e-14
5341.09 1.5725e-14
5343.79 1.6016e-14
5346.49 1.6274e-14
5349.19 1.6476e-14
5351.89 1.6544e-14
5354.59 1.6042e-14
5357.29 1.6629e-14
5359.99 1.6519e-14
5362.69 1.5948e-14
5365.39 1.5831e-14
5368.09 1.5544e-14
5370.79 1.591e-14
5373.49 1.6436e-14
5376.19 1.6553e-14
5378.89 1.647e-14
5381.59 1.608e-14
5384.29 1.606e-14
5386.99 1.6421e-14
5389.69 1.567e-14
5392.39 1.5388e-14
5395.09 1.5847e-14
5397.79 1.5296e-14
5400.49 1.5499e-14
5403.19 1.6074e-14
5405.89 1.5995e-14
5408.59 1.586e-14
5411.29 1.5978e-14
5413.99 1.6369e-14
5416.69 1.6452e-14
5419.39 1.6201e-14
5422.09 1.651e-14
5424.79 1.6461e-14
5427.49 1.6037e-14
5430.19 1.6092e-14
5432.89 1.6095e-14
5435.59 1.5981e-14
5438.29 1.5855e-14
5440.99 1.6302e-14
5443.69 1.6454e-14
5446.39 1.6073e-14
5449.09 1.5632e-14
5451.79 1.5109e-14
5454.49 1.6161e-14
5457.19 1.5782e-14
5459.89 1.6428e-14
5462.59 1.6209e-14
5465.3 1.5956e-14
5468.0 1.567e-14
5470.7 1.5596e-14
5473.4 1.5624e-14
5476.1 1.6231e-14
5478.8 1.6027e-14
5481.5 1.5382e-14
5484.2 1.5341e-14
5486.9 1.606e-14
5489.6 1.5563e-14
5492.3 1.5872e-14
5495.0 1.5532e-14
5497.7 1.6061e-14
5500.4 1.5631e-14
5503.1 1.5863e-14
5505.8 1.6305e-14
5508.5 1.5868e-14
5511.2 1.5657e-14
5513.9 1.6064e-14
5516.6 1.6695e-14
5519.3 1.6524e-14
5522.0 1.6423e-14
5524.7 1.636e-14
5527.4 1.5903e-14
5530.1 1.5878e-14
5532.8 1.5552e-14
5535.5 1.635e-14
5538.2 1.6387e-14
5540.9 1.6593e-14
5543.6 1.7158e-14
5546.3 1.6742e-14
5549.0 1.7047e-14
5551.7 1.7128e-14
5554.4 1.6393e-14
5557.1 1.6718e-14
5559.8 1.6297e-14
5562.5 1.6009e-14
5565.2 1.6209e-14
5567.9 1.6046e-14
5570.6 1.6593e-14
5573.3 1.6242e-14
5576.0 1.6436e-14
5578.7 1.6643e-14
5581.4 1.6855e-14
5584.1 1.6448e-14
5586.8 1.6322e-14
5589.5 1.657e-14
5592.2 1.5677e-14
5594.9 1.6802e-14
5597.6 1.6362e-14
5600.3 1.6042e-14
5603.0 1.6249e-14
5605.7 1.6715e-14
5608.4 1.6632e-14
5611.1 1.6581e-14
5613.8 1.651e-14
5616.5 1.6698e-14
5619.2 1.6755e-14
5621.9 1.67e-14
5624.6 1.6315e-14
5627.3 1.6472e-14
5630.0 1.6374e-14
5632.7 1.6468e-14
5635.4 1.6287e-14
5638.1 1.6096e-14
5640.8 1.6305e-14
5643.5 1.6591e-14
5646.2 1.6523e-14
5648.9 1.6167e-14
5651.6 1.6521e-14
5654.3 1.699e-14
5657.0 1.6433e-14
5659.7 1.6209e-14
5662.4 1.6111e-14
5665.1 1.5946e-14
5667.8 1.6689e-14
5670.5 1.6684e-14
5673.2 1.6756e-14
5675.9 1.638e-14
5678.6 1.6557e-14
5681.3 1.6494e-14
5684.0 1.6222e-14
5686.7 1.6676e-14
5689.4 1.6543e-14
5692.1 1.6265e-14
5694.8 1.6304e-14
5697.5 1.6277e-14
5700.2 1.6726e-14
5702.9 1.5942e-14
5705.6 1.6182e-14
5708.3 1.6519e-14
5711.0 1.6603e-14
5713.7 1.6375e-14
5716.4 1.7495e-14
5719.1 1.6782e-14
5721.8 1.6795e-14
5724.5 1.7029e-14
5727.2 1.695e-14
5729.9 1.6373e-14
5732.6 1.6804e-14
5735.3 1.6796e-14
5738.0 1.6447e-14
5740.7 1.7603e-14
5743.4 1.6687e-14
5746.1 1.6735e-14
5748.8 1.6828e-14
5751.5 1.6754e-14
5754.21 1.7065e-14
5756.91 1.6249e-14
5759.61 1.6421e-14
5762.31 1.6843e-14
5765.01 1.6543e-14
5767.71 1.6666e-14
5770.41 1.6205e-14
5773.11 1.6549e-14
5775.81 1.6513e-14
5778.51 1.626e-14
5781.21 1.4881e-14
5783.91 1.5956e-14
5786.61 1.5331e-14
5789.31 1.6342e-14
5792.01 1.6663e-14
5794.71 1.5686e-14
5797.41 1.6478e-14
5800.11 1.6775e-14
5802.81 1.7032e-14
5805.51 1.6943e-14
5808.21 1.6922e-14
5810.91 1.7145e-14
5813.61 1.6672e-14
5816.31 1.7066e-14
5819.01 1.7129e-14
5821.71 1.7041e-14
5824.41 1.7629e-14
5827.11 1.7327e-14
5829.81 1.707e-14
5832.51 1.6439e-14
5835.21 1.6629e-14
5837.91 1.6576e-14
5840.61 1.6985e-14
5843.31 1.6757e-14
5846.01 1.7408e-14
5848.71 1.6299e-14
5851.41 1.6048e-14
5854.11 1.6879e-14
5856.81 1.6677e-14
5859.51 1.6435e-14
5862.21 1.7113e-14
5864.91 1.6934e-14
5867.61 1.6884e-14
5870.31 1.629e-14
5873.01 1.5427e-14
5875.71 1.4442e-14
5878.41 1.3053e-14
5881.11 1.2005e-14
5883.81 1.1067e-14
5886.51 1.1498e-14
5889.21 1.2588e-14
5891.91 1.3616e-14
5894.61 1.4803e-14
5897.31 1.5756e-14
5900.01 1.6021e-14
5902.71 1.6351e-14
5905.41 1.6096e-14
5908.11 1.5979e-14
5910.81 1.6551e-14
5913.51 1.6353e-14
5916.21 1.6349e-14
5918.91 1.6335e-14
5921.61 1.6221e-14
5924.31 1.6413e-14
5927.01 1.6238e-14
5929.71 1.6224e-14
5932.41 1.6277e-14
5935.11 1.659e-14
5937.81 1.6365e-14
5940.51 1.6251e-14
5943.21 1.662e-14
5945.91 1.6393e-14
5948.61 1.6605e-14
5951.31 1.6883e-14
5954.01 1.6355e-14
5956.71 1.6185e-14
5959.41 1.6337e-14
5962.11 1.6467e-14
5964.81 1.6599e-14
5967.51 1.6475e-14
5970.21 1.6832e-14
5972.91 1.6461e-14
5975.61 1.6461e-14
5978.31 1.6498e-14
5981.01 1.6747e-14
5983.71 1.6612e-14
5986.41 1.659e-14
5989.11 1.6836e-14
5991.81 1.6861e-14
5994.51 1.6439e-14
5997.21 1.6377e-14
5999.91 1.6747e-14
6002.61 1.6438e-14
6005.31 1.6068e-14
6008.01 1.6056e-14
6010.71 1.6187e-14
6013.41 1.6481e-14
6016.11 1.5677e-14
6018.81 1.5889e-14
6021.51 1.6711e-14
6024.21 1.6254e-14
6026.91 1.6424e-14
6029.61 1.6325e-14
6032.31 1.7088e-14
6035.01 1.6846e-14
6037.71 1.6987e-14
6040.42 1.6706e-14
6043.12 1.7141e-14
6045.82 1.6624e-14
6048.52 1.6433e-14
6051.22 1.6709e-14
6053.92 1.6497e-14
6056.62 1.6883e-14
6059.32 1.6433e-14
6062.02 1.6468e-14
6064.72 1.6656e-14
6067.42 1.6323e-14
6070.12 1.666e-14
6072.82 1.6252e-14
6075.52 1.6255e-14
6078.22 1.6608e-14
6080.92 1.5845e-14
6083.62 1.6201e-14
6086.32 1.6314e-14
6089.02 1.665e-14
6091.72 1.6572e-14
6094.42 1.5949e-14
6097.12 1.6311e-14
6099.82 1.6322e-14
6102.52 1.605e-14
6105.22 1.6126e-14
6107.92 1.6135e-14
6110.62 1.616e-14
6113.32 1.6e-14
6116.02 1.5943e-14
6118.72 1.6463e-14
6121.42 1.668e-14
6124.12 1.6469e-14
6126.82 1.6162e-14
6129.52 1.5465e-14
6132.22 1.5589e-14
6134.92 1.544e-14
6137.62 1.6139e-14
6140.32 1.6448e-14
6143.02 1.7048e-14
6145.72 1.6161e-14
6148.42 1.5823e-14
6151.12 1.5768e-14
6153.82 1.5385e-14
6156.52 1.519e-14
6159.22 1.6231e-14
6161.92 1.6029e-14
6164.62 1.5415e-14
6167.32 1.5901e-14
6170.02 1.5587e-14
6172.72 1.653e-14
6175.42 1.6341e-14
6178.12 1.6637e-14
6180.82 1.5834e-14
6183.52 1.6511e-14
6186.22 1.5711e-14
6188.92 1.5736e-14
6191.62 1.5551e-14
6194.32 1.5963e-14
6197.02 1.6587e-14
6199.72 1.6469e-14
6202.42 1.7125e-14
6205.12 1.6825e-14
6207.82 1.668e-14
6210.52 1.6135e-14
6213.22 1.6148e-14
6215.92 1.5859e-14
6218.62 1.566e-14
6221.32 1.65e-14
6224.02 1.5691e-14
6226.72 1.5731e-14
6229.42 1.6036e-14
6232.12 1.6081e-14
6234.82 1.5954e-14
6237.52 1.6202e-14
6240.22 1.5084e-14
6242.92 1.5972e-14
6245.62 1.6325e-14
6248.32 1.6161e-14
6251.02 1.5906e-14
6253.72 1.5455e-14
6256.42 1.5989e-14
6259.12 1.5061e-14
6261.82 1.5481e-14
6264.52 1.6617e-14
6267.22 1.5638e-14
6269.92 1.6288e-14
6272.62 1.5588e-14
6275.32 1.5933e-14
6278.02 1.5515e-14
6280.72 1.5613e-14
6283.42 1.539e-14
6286.12 1.5705e-14
6288.82 1.6315e-14
6291.52 1.6387e-14
6294.22 1.7254e-14
6296.92 1.7326e-14
6299.62 1.6927e-14
6302.32 1.6047e-14
6305.02 1.6138e-14
6307.72 1.5816e-14
6310.42 1.5733e-14
6313.12 1.5868e-14
6315.82 1.5343e-14
6318.52 1.622e-14
6321.22 1.5814e-14
6323.92 1.6453e-14
6326.63 1.636e-14
6329.33 1.5846e-14
6332.03 1.634e-14
6334.73 1.6106e-14
6337.43 1.6426e-14
6340.13 1.5902e-14
6342.83 1.6252e-14
6345.53 1.58e-14
6348.23 1.5639e-14
6350.93 1.5482e-14
6353.63 1.4919e-14
6356.33 1.5761e-14
6359.03 1.6273e-14
6361.73 1.636e-14
6364.43 1.576e-14
6367.13 1.6229e-14
6369.83 1.5736e-14
6372.53 1.6079e-14
6375.23 1.6564e-14
6377.93 1.6802e-14
6380.63 1.5939e-14
6383.33 1.633e-14
6386.03 1.5986e-14
6388.73 1.5964e-14
6391.43 1.5773e-14
6394.13 1.5895e-14
6396.83 1.5814e-14
6399.53 1.6053e-14
6402.23 1.5686e-14
6404.93 1.5402e-14
6407.63 1.6155e-14
6410.33 1.6385e-14
6413.03 1.5788e-14
6415.73 1.5951e-14
6418.43 1.6424e-14
6421.13 1.6159e-14
6423.83 1.6601e-14
6426.53 1.6328e-14
6429.23 1.6312e-14
6431.93 1.6496e-14
6434.63 1.615e-14
6437.33 1.5636e-14
6440.03 1.5954e-14
6442.73 1.6393e-14
6445.43 1.5979e-14
6448.13 1.5861e-14
6450.83 1.5441e-14
6453.53 1.5853e-14
6456.23 1.6714e-14
6458.93 1.6074e-14
6461.63 1.612e-14
6464.33 1.6372e-14
6467.03 1.6334e-14
6469.73 1.5965e-14
6472.43 1.6648e-14
6475.13 1.6142e-14
6477.83 1.6e-14
6480.53 1.6405e-14
6483.23 1.6092e-14
6485.93 1.5931e-14
6488.63 1.5664e-14
6491.33 1.4808e-14
6494.03 1.4876e-14
6496.73 1.6419e-14
6499.43 1.5524e-14
6502.13 1.5648e-14
6504.83 1.6945e-14
6507.53 1.6543e-14
6510.23 1.7018e-14
6512.93 1.629e-14
6515.63 1.6589e-14
6518.33 1.6421e-14
6521.03 1.6268e-14
6523.73 1.6668e-14
6526.43 1.6306e-14
6529.13 1.72e-14
6531.83 1.7422e-14
6534.53 1.8036e-14
6537.23 1.9836e-14
6539.93 2.2808e-14
6542.63 2.5151e-14
6545.33 2.6048e-14
6548.03 2.4786e-14
6550.73 2.9031e-14
6553.43 4.0863e-14
6556.13 5.4031e-14
6558.83 5.8709e-14
6561.53 5.0861e-14
6564.23 3.7456e-14
6566.93 2.6611e-14
6569.63 2.2702e-14
6572.33 2.6182e-14
6575.03 3.3927e-14
6577.73 4.0798e-14
6580.43 4.1804e-14
6583.13 3.5281e-14
6585.83 2.6044e-14
6588.53 2.0133e-14
6591.23 1.7143e-14
6593.93 1.6222e-14
6596.63 1.5917e-14
6599.33 1.5958e-14
6602.03 1.6084e-14
6604.73 1.6515e-14
6607.43 1.6148e-14
6610.13 1.6678e-14
6612.84 1.6521e-14
6615.54 1.6593e-14
6618.24 1.6326e-14
6620.94 1.626e-14
6623.64 1.6054e-14
6626.34 1.6398e-14
6629.04 1.622e-14
6631.74 1.6039e-14
6634.44 1.5949e-14
6637.14 1.6682e-14
6639.84 1.6233e-14
6642.54 1.6116e-14
6645.24 1.5978e-14
6647.94 1.6136e-14
6650.64 1.62e-14
6653.34 1.593e-14
6656.04 1.6328e-14
6658.74 1.5787e-14
6661.44 1.568e-14
6664.14 1.6611e-14
6666.84 1.6324e-14
6669.54 1.6612e-14
6672.24 1.7437e-14
6674.94 1.8856e-14
6677.64 1.9529e-14
6680.34 2.0246e-14
6683.04 1.9105e-14
6685.74 1.6865e-14
6688.44 1.7547e-14
6691.14 1.6058e-14
6693.84 1.6117e-14
6696.54 1.5395e-14
6699.24 1.6181e-14
6701.94 1.6495e-14
6704.64 1.8001e-14
6715.0 1.618e-14
6730.48 1.6031e-14
6746.0 1.6029e-14
6761.55 1.5991e-14
6777.14 1.5954e-14
6792.76 1.5952e-14
6808.42 1.6062e-14
6824.11 1.6061e-14
6839.84 1.6097e-14
6855.61 1.5948e-14
6871.42 1.5656e-14
6887.26 1.5982e-14
6903.13 1.5981e-14
6919.05 1.6017e-14
6935.0 1.5979e-14
6950.98 1.6275e-14
6967.01 1.6087e-14
6983.07 1.6012e-14
6999.16 1.6159e-14
7015.3 1.6121e-14
7031.47 1.612e-14
7047.68 1.6532e-14
7063.93 1.6342e-14
7080.21 1.634e-14
7096.53 1.5967e-14
7112.89 1.604e-14
7129.29 1.6039e-14
7145.72 1.5927e-14
7162.19 1.5963e-14
7178.71 1.5491e-14
7195.26 1.4998e-14
7211.84 1.5206e-14
7228.47 1.5921e-14
7245.13 1.5774e-14
7261.83 1.5955e-14
7278.57 1.6065e-14
7295.35 1.5807e-14
7312.17 1.6323e-14
7329.02 1.6587e-14
7345.92 1.6856e-14
7362.85 1.6433e-14
7379.83 1.6814e-14
7396.84 1.6468e-14
7413.89 1.6734e-14
7430.98 1.6428e-14
7448.11 1.6732e-14
7465.28 1.6963e-14
7482.49 1.6884e-14
7499.74 1.6728e-14
7517.03 1.6727e-14
7534.36 1.6958e-14
7551.72 1.7074e-14
7569.14 1.6995e-14
7586.58 1.7072e-14
7604.07 1.6643e-14
7621.6 1.6604e-14
7639.17 1.6262e-14
7656.78 1.6411e-14
7674.43 1.4795e-14
7692.12 1.6072e-14
7709.85 1.5102e-14
7727.63 1.6032e-14
7745.44 1.6292e-14
7763.3 1.603e-14
7781.19 1.5272e-14
7799.13 1.599e-14
7817.11 1.6211e-14
7835.13 1.6285e-14
7853.19 1.6321e-14
7871.3 1.632e-14
7889.44 1.6356e-14
7907.63 1.6242e-14
7925.86 1.5944e-14
7944.13 1.6054e-14
7962.44 1.6164e-14
7980.8 1.6312e-14
7999.19 1.6273e-14
8017.63 1.6309e-14
8036.12 1.6195e-14
8054.64 1.6269e-14
8073.21 1.6685e-14
8091.82 1.6454e-14
8110.47 1.6682e-14
8129.17 1.6642e-14
8147.91 1.6603e-14
8166.69 1.6487e-14
8185.52 1.5962e-14
8204.39 1.4999e-14
8223.3 1.6407e-14
8242.26 1.6069e-14
8261.26 1.6864e-14
8280.3 1.6593e-14
8299.39 1.6251e-14
8318.52 1.6324e-14
8337.7 1.6062e-14
8356.92 1.6359e-14
8376.18 1.6396e-14
8395.49 1.5911e-14
8414.85 1.6506e-14
8434.25 1.6391e-14
8453.69 1.6054e-14
8473.18 1.6052e-14
8492.71 1.6425e-14
8512.29 1.5576e-14
8531.91 1.6346e-14
8551.58 1.1439e-14
8571.29 1.6343e-14
8591.05 1.6192e-14
8610.86 1.5932e-14
8630.7 1.6152e-14
8650.6 1.6262e-14
8670.54 1.2222e-14
8690.53 1.578e-14
8710.56 1.5888e-14
8730.64 1.6182e-14
8750.77 1.5776e-14
8770.94 1.6105e-14
8791.16 1.6215e-14
8811.43 1.6139e-14
8831.74 1.6063e-14
8852.1 1.6099e-14
8872.51 1.4613e-14
8892.96 1.5766e-14
8913.46 1.6057e-14
8934.01 1.5908e-14
8954.6 1.5653e-14
8975.24 1.5155e-14
8995.93 1.4572e-14
9016.67 1.5013e-14
9037.46 1.5683e-14
9058.29 1.6803e-14
9079.17 1.5394e-14
9100.1 1.5322e-14
9121.08 1.6153e-14
9142.11 1.5143e-14
9163.18 1.4131e-14
9184.3 1.4033e-14
9205.47 1.542e-14
9226.7 1.4999e-14
9247.97 1.5171e-14
9269.28 1.5487e-14
9290.65 1.5344e-14
9312.07 1.5627e-14
9333.53 1.5626e-14
9355.05 1.5588e-14
9376.62 1.5479e-14
9398.23 1.5549e-14
9419.9 1.537e-14
9441.61 1.5404e-14
9463.38 1.5402e-14
9485.19 1.5365e-14
9507.06 1.5223e-14
9528.98 1.4978e-14
9550.94 1.4204e-14
9572.96 1.4941e-14
9595.03 1.5147e-14
9617.14 1.5111e-14
9639.32 1.5109e-14
9661.54 1.5004e-14
9683.81 1.5037e-14
9706.13 1.4966e-14
9728.51 1.493e-14
9750.93 1.4894e-14
9773.41 1.4858e-14
9795.94 1.4789e-14
9818.52 1.4821e-14
9841.16 1.4786e-14
9863.84 1.4716e-14
9886.58 1.4647e-14
9909.38 1.4612e-14
9932.22 1.461e-14
9955.11 1.4575e-14
9978.06 1.454e-14
10001.06 1.4472e-14
10024.11 1.4141e-14
10070.39 1.388e-14
10116.87 1.4167e-14
10163.57 1.4067e-14
10234.02 1.403e-14
10281.26 1.3963e-14
10304.96 1.3897e-14
10496.54 1.3506e-14
10691.69 1.3047e-14
10890.46 1.246e-14
11092.93 1.2346e-14
11299.16 1.1982e-14
11509.22 1.179e-14
11696.24 1.1469e-14
11913.69 1.1182e-14
12107.27 1.0902e-14
12304.0 1.0703e-14
12503.92 1.0484e-14
12707.09 1.0269e-14
12913.57 1.0058e-14
13093.21 9.8974e-15
13305.96 9.6944e-15
13491.06 9.5834e-15
13710.28 9.4302e-15
13901.01 9.2581e-15
14094.39 9.0891e-15
14290.46 8.9851e-15
14489.27 8.9644e-15
14690.83 8.8211e-15
14895.2 8.8008e-15
15102.4 8.7603e-15
15312.5 8.8008e-15
15489.81 8.8008e-15
15705.3 8.6601e-15
15887.16 8.502e-15
16108.18 8.5216e-15
16294.69 8.5216e-15
16483.37 8.3276e-15
16712.68 8.2134e-15
16906.21 8.0079e-15
17101.98 7.8799e-15
17300.0 7.5774e-15
17500.33 7.4563e-15
17702.98 7.2698e-15
17907.97 7.1043e-15
18115.32 6.8473e-15
18282.95 6.7534e-15
18494.66 6.6149e-15
18708.82 6.3756e-15
18881.92 6.2737e-15
19100.57 6.1592e-15
19321.75 5.9775e-15
19500.52 5.7481e-15
19680.96 5.6692e-15
19908.86 5.5401e-15
20093.06 5.4516e-15
20278.99 5.303e-15
20513.81 5.2182e-15
20703.61 5.0994e-15
20895.19 4.9948e-15
21088.51 4.8924e-15
21283.65 4.792e-15
21480.6 4.7046e-15
21679.34 4.5449e-15
21879.95 4.4928e-15
22082.41 4.3906e-15
22286.72 4.3005e-15
22492.95 4.2123e-15
22701.06 4.0788e-15
22911.12 3.7013e-15
23123.12 3.6224e-15
23283.39 3.2311e-15
23498.84 3.0524e-15
23716.26 3.025e-15
23880.66 2.7902e-15
24101.61 2.6811e-15
24324.63 2.6167e-15
24493.23 2.4557e-15
24719.87 2.3997e-15
24891.21 2.1145e-15
25059.92 2.1961e-15
25154.96 2.1087e-15
25250.01 2.1404e-15
25344.95 2.0415e-15
25439.99 2.0599e-15
25534.94 2.073e-15
25629.98 2.0631e-15
25725.02 2.0667e-15
25819.97 2.1627e-15
25915.01 2.1406e-15
26010.06 2.1794e-15
26105.0 2.0928e-15
26200.05 2.0439e-15
26294.99 1.9746e-15
26390.03 1.9549e-15
26485.08 1.8761e-15
26580.02 1.8963e-15
26675.06 1.845e-15
26770.11 1.8841e-15
26865.05 1.789e-15
26960.1 1.7686e-15
27055.04 1.7382e-15
27150.08 1.7579e-15
27245.13 1.7818e-15
27340.07 1.788e-15
27435.12 1.7073e-15
27530.16 1.694e-15
27625.11 1.6209e-15
27720.15 1.7255e-15
27815.09 1.6423e-15
27910.14 1.6284e-15
28005.18 1.5701e-15
28100.13 1.6289e-15
28195.17 1.5652e-15
28290.21 1.5084e-15
28385.16 1.5222e-15
28480.2 1.4738e-15
28575.15 1.4917e-15
28670.19 1.5255e-15
28765.23 1.4236e-15
28860.18 1.442e-15
28955.22 1.4125e-15
29050.26 1.3877e-15
29145.21 1.4031e-15
29240.25 1.3977e-15
29335.2 1.3769e-15
29430.24 1.2692e-15
29525.29 1.3111e-15
29620.23 1.33e-15
29715.27 1.3023e-15
29810.31 1.2963e-15
29905.26 1.2745e-15
30000.31 1.2746e-15
30095.25 1.1824e-15
30190.29 1.2241e-15
30285.34 1.27e-15
30380.28 1.2774e-15
30475.32 1.2553e-15
30570.37 1.2208e-15
30665.31 1.1899e-15
30760.36 1.2313e-15
30855.3 1.1569e-15
30950.35 1.2033e-15
31045.39 1.1812e-15
31140.33 1.2261e-15
31235.38 1.1595e-15
31330.42 1.1333e-15
31425.36 1.1212e-15
31520.41 1.1259e-15
31615.35 1.1427e-15
31710.4 1.1862e-15
31805.44 1.2187e-15
31900.39 1.2496e-15
31995.43 1.2618e-15
32090.47 1.365e-15
32185.42 1.4696e-15
32280.46 1.6367e-15
32375.41 1.8103e-15
32470.45 2.1455e-15
32565.49 2.3431e-15
32660.44 2.392e-15
32755.48 2.41e-15
32850.52 2.2387e-15
32945.47 1.9566e-15
33040.51 1.7962e-15
33135.46 1.5163e-15
33230.5 1.3791e-15
33325.54 1.3809e-15
33420.49 1.2828e-15
33515.53 1.3052e-15
33610.58 1.3668e-15
33705.52 1.3509e-15
33800.56 1.3793e-15
33895.51 1.461e-15
33990.55 1.4201e-15
34085.6 1.367e-15
34180.54 1.3449e-15
34275.59 1.2911e-15
34370.63 1.3297e-15
34465.57 1.306e-15
34560.61 1.2726e-15
34655.56 1.2435e-15
34750.6 1.211e-15
34845.65 1.2029e-15
34940.59 1.1724e-15
35035.64 1.1411e-15
35130.68 1.1368e-15
35225.62 1.0683e-15
35320.67 1.0472e-15
35415.61 1.0997e-15
35510.66 1.0436e-15
35605.7 1.0453e-15
35700.64 1.0342e-15
35795.69 9.7914e-16
35890.73 9.759e-16
35985.68 1.0267e-15
36080.72 9.8364e-16
36175.67 9.3708e-16
36270.71 9.372e-16
36365.75 9.1999e-16
36460.7 8.869e-16
36555.74 9.0817e-16
36650.78 9.053e-16
36745.73 9.1084e-16
36840.77 8.8801e-16
36935.72 8.9798e-16
37030.76 9.0415e-16
37125.8 9.0603e-16
37220.75 9.1208e-16
37315.79 8.9417e-16
37410.84 9.0128e-16
37505.78 8.9967e-16
37600.82 9.0868e-16
37695.77 8.4836e-16
37790.81 8.1273e-16
37885.85 8.548e-16
37980.8 8.6752e-16
38075.85 8.6606e-16
38170.89 8.6982e-16
38265.83 8.4398e-16
38360.88 8.5473e-16
38455.82 8.0998e-16
38550.87 7.77e-16
38645.91 8.0373e-16
38740.85 7.8895e-16
38835.9 7.7934e-16
38930.94 7.8385e-16
39025.88 8.1866e-16
39120.93 7.521e-16
39215.87 7.5986e-16
39310.92 7.84e-16
39405.96 7.5249e-16
39500.9 7.2333e-16
39595.95 7.3512e-16
39690.99 7.4562e-16
39785.94 7.5954e-16
39880.98 7.844e-16
39975.92 7.5587e-16
40070.97 7.9798e-16
40166.01 8.5175e-16
40260.96 9.1704e-16
40356.0 9.2503e-16
40451.05 8.9412e-16
40545.99 7.9347e-16
40641.03 7.4572e-16
40735.98 7.2268e-16
40831.02 6.9347e-16
40926.06 6.7076e-16
41021.01 7.047e-16
41116.05 6.8388e-16
41211.1 6.8745e-16
41306.04 6.8877e-16
41401.08 7.1535e-16
41496.03 6.7924e-16
41591.07 6.897e-16
41686.11 6.6994e-16
41781.06 6.4895e-16
41876.1 6.5222e-16
41971.15 6.5134e-16
42066.09 6.2537e-16
42161.14 6.2139e-16
42256.08 6.0549e-16
42351.12 5.7522e-16
42446.17 5.9692e-16
42541.11 5.6782e-16
42636.16 5.8012e-16
42731.2 6.156e-16
42826.15 6.1867e-16
42921.19 5.9484e-16
43016.14 6.1026e-16
43111.18 5.7758e-16
43206.22 6.0625e-16
43301.16 6.09e-16
43396.2 6.1163e-16
43491.25 5.5853e-16
43586.2 5.6922e-16
43681.24 5.78e-16
43776.19 5.5089e-16
43871.23 5.5626e-16
43966.27 5.1089e-16
44061.21 5.5236e-16
44156.26 4.9647e-16
44251.3 4.9412e-16
44346.25 4.9347e-16
44441.29 4.9391e-16
44536.24 4.5704e-16
44631.28 4.6699e-16
44726.33 4.518e-16
44821.27 4.7946e-16
44916.31 4.8653e-16
45011.36 4.4907e-16
45106.3 4.5502e-16
45201.34 4.1103e-16
45296.29 4.3095e-16
45391.33 4.4619e-16
45486.38 4.7088e-16
45581.32 4.6562e-16
45676.37 4.66e-16
45771.41 4.5511e-16
45866.35 4.5184e-16
45961.39 4.5913e-16
46056.34 4.7338e-16
46151.38 5.0359e-16
46246.43 4.9569e-16
46341.37 5.6269e-16
46436.41 4.9713e-16
46531.46 4.9317e-16
46626.4 5.2199e-16
46721.45 4.8692e-16
46816.39 4.9805e-16
46911.44 4.7456e-16
47006.48 4.9732e-16
47101.43 4.7953e-16
47196.47 4.5512e-16
47291.51 4.5251e-16
47386.46 4.5091e-16
47481.5 3.8797e-16
47576.45 3.7687e-16
47671.49 4.1496e-16
47766.53 4.2387e-16
47861.47 4.2122e-16
47956.52 4.3358e-16
48051.56 4.2847e-16
48146.51 4.1223e-16
48241.55 4.1451e-16
48336.5 3.9515e-16
48431.54 4.0824e-16
48526.58 3.8755e-16
48622.51 4.0882e-16
49108.74 4.1969e-16
49599.82 4.3065e-16
50095.82 4.4173e-16
50596.78 4.5292e-16
51102.75 4.6423e-16
51225.7 4.6697e-16
51522.61 4.903e-16
51819.52 5.7295e-16
52116.43 6.2974e-16
52413.35 7.8461e-16
52710.36 7.0721e-16
53007.27 6.4443e-16
53304.18 6.7864e-16
53601.09 5.9268e-16
53898.0 5.1313e-16
54195.01 5.0723e-16
54491.93 4.9532e-16
54788.84 5.3377e-16
55085.75 5.8061e-16
55382.66 5.9534e-16
55679.67 6.044e-16
55976.58 7.0165e-16
56273.49 8.4382e-16
56570.41 8.9715e-16
56867.32 8.968e-16
57164.33 8.971e-16
57461.24 8.7534e-16
57758.16 8.2844e-16
58055.07 8.0006e-16
58351.98 8.1991e-16
58648.99 8.5669e-16
58945.9 8.684e-16
59242.82 8.5882e-16
59539.73 9.1962e-16
59836.64 1.0858e-15
60133.65 1.2229e-15
60430.56 1.2789e-15
60727.47 1.3402e-15
61024.39 1.5433e-15
61321.3 2.0805e-15
61618.31 3.048e-15
61915.22 3.9785e-15
62212.14 4.0702e-15
62509.04 3.5848e-15
62805.95 2.9916e-15
63102.97 2.476e-15
63399.88 2.0645e-15
63696.79 1.8487e-15
63993.7 1.6329e-15
64290.62 1.4621e-15
64587.63 1.3782e-15
64884.54 1.2672e-15
65181.45 1.2357e-15
65478.36 1.2094e-15
65775.28 1.2144e-15
66072.29 1.2464e-15
66369.2 1.2846e-15
66666.11 1.285e-15
66963.02 1.2722e-15
67259.94 1.2621e-15
67556.95 1.2729e-15
67853.86 1.2413e-15
68150.77 1.2173e-15
68447.69 1.2641e-15
68744.6 1.3157e-15
69041.61 1.4008e-15
69338.52 1.4724e-15
69635.43 1.9227e-15
69932.34 2.0885e-15
70229.25 1.7892e-15
70526.26 1.7104e-15
70823.18 1.6914e-15
71120.09 1.7158e-15
71417.0 1.7493e-15
71713.91 1.7675e-15
72010.92 1.7805e-15
72307.83 1.8756e-15
72604.75 1.9483e-15
72901.66 2.0634e-15
73198.57 2.1724e-15
73495.58 2.3525e-15
73792.49 2.5544e-15
74089.4 2.7251e-15
74386.31 2.9385e-15
74980.14 3.5466e-15
75574.06 4.102e-15
76167.88 4.3177e-15
76761.71 4.1397e-15
77355.63 4.0015e-15
77949.46 3.9241e-15
78543.38 3.6613e-15
79137.21 3.2459e-15
79731.03 2.7955e-15
80324.95 2.4265e-15
80918.78 2.1124e-15
81512.61 1.9143e-15
82106.52 1.838e-15
82700.35 1.8221e-15
83294.17 1.825e-15
83888.1 1.8119e-15
84481.92 1.8606e-15
85075.85 1.9881e-15
85669.67 2.0338e-15
86263.5 1.9031e-15
86857.42 1.6811e-15
87451.24 1.368e-15
88045.07 1.0814e-15
88638.98 8.8588e-16
89232.81 7.6171e-16
89826.63 6.8398e-16
90420.55 6.0027e-16
91014.38 5.4501e-16
91608.3 5.1257e-16
92202.12 4.8801e-16
92795.95 4.6658e-16
93389.87 4.451e-16
93983.7 4.3224e-16
94577.53 4.2706e-16
95171.45 4.1585e-16
95765.27 4.1084e-16
96359.09 4.3045e-16
96953.02 4.2328e-16
97546.85 3.8573e-16
98140.77 3.6769e-16
98734.59 3.5539e-16
99328.42 3.5187e-16
99922.34 3.4681e-16
100516.16 3.4803e-16
101109.99 3.4713e-16
101703.9 3.5549e-16
102297.73 3.4987e-16
102891.55 3.5127e-16
103485.47 3.6104e-16
104079.3 3.8333e-16
104673.23 4.183e-16
105267.04 4.6343e-16
105860.87 4.9587e-16
106454.8 4.953e-16
107048.62 5.0455e-16
107642.44 5.1064e-16
108236.37 5.1791e-16
108830.19 5.5216e-16
109424.02 6.4384e-16
110017.94 7.7377e-16
110611.77 8.7542e-16
111205.69 1.1951e-15
111799.51 1.8726e-15
112393.34 2.3118e-15
112987.26 2.0268e-15
113581.08 1.6431e-15
114174.91 1.3622e-15
114768.82 1.1547e-15
115362.65 1.0126e-15
115956.47 9.2365e-16
116550.39 8.5405e-16
117144.22 8.2852e-16
117738.15 8.2998e-16
118331.97 8.6914e-16
118925.79 9.0521e-16
119519.72 9.4981e-16
120113.54 9.4962e-16
120707.37 9.3305e-16
121301.29 9.0482e-16
121895.11 9.0963e-16
122488.94 9.6964e-16
123082.86 1.0208e-15
123676.69 1.0479e-15
124270.61 1.086e-15
124864.43 1.1402e-15
125458.26 1.2141e-15
126052.18 1.2816e-15
126646.0 1.3413e-15
127239.83 1.5448e-15
127833.76 2.1432e-15
128427.57 2.002e-15
129021.39 1.0497e-15
129615.32 8.5247e-16
130209.14 7.9442e-16
130802.96 7.8433e-16
131396.89 7.8194e-16
131990.71 7.6467e-16
132584.64 7.6271e-16
133178.46 7.5208e-16
133772.28 7.4475e-16
134366.21 7.4493e-16
134960.03 7.4171e-16
135553.85 7.4387e-16
136147.78 7.1697e-16
136741.6 7.0083e-16
137335.43 6.7916e-16
137929.35 6.7474e-16
138523.18 6.7898e-16
139117.1 6.6859e-16
139710.93 6.6219e-16
140304.75 6.5361e-16
140898.68 6.4279e-16
141492.5 6.5249e-16
142086.32 6.486e-16
143128.65 6.8497e-16
143960.09 6.6355e-16
144791.52 6.3037e-16
145622.95 6.1714e-16
146454.29 6.1288e-16
147285.72 6.0295e-16
148117.15 6.0023e-16
148948.49 6.1239e-16
149779.91 6.0488e-16
150611.34 6.0001e-16
151442.68 5.9489e-16
152274.11 5.9521e-16
153105.56 5.9652e-16
153936.89 6.0512e-16
154768.32 6.4168e-16
155599.75 7.1051e-16
156431.08 6.7284e-16
157262.52 6.347e-16
158093.95 6.4103e-16
158925.38 6.5248e-16
159756.72 6.5626e-16
160588.16 6.5737e-16
161419.58 6.5958e-16
162250.93 6.7696e-16
163082.34 7.4554e-16
163913.77 8.292e-16
164745.13 8.7451e-16
165576.54 8.2623e-16
166407.98 7.915e-16
167239.31 7.9479e-16
168070.75 7.9752e-16
168902.18 8.0327e-16
169733.5 9.0081e-16
170564.95 9.3831e-16
171396.38 8.4224e-16
172227.81 8.2842e-16
173059.14 8.285e-16
173890.59 8.3301e-16
174722.0 7.8305e-16
175553.36 7.4793e-16
176384.79 7.273e-16
177216.22 7.2511e-16
178047.55 7.2137e-16
178878.97 7.2505e-16
179710.41 7.0976e-16
180541.75 7.0039e-16
181373.18 7.0136e-16
182204.61 6.9888e-16
183035.93 6.9236e-16
183867.38 6.9303e-16
184698.82 7.0103e-16
185530.25 7.274e-16
186361.57 8.2968e-16
187193.02 9.5699e-16
188024.43 8.4131e-16
188855.78 7.5036e-16
189687.21 7.5806e-16
190518.64 7.3871e-16
191349.98 7.4612e-16
192181.43 7.5212e-16
193012.84 7.6568e-16
193844.18 7.5413e-16
194675.61 7.569e-16
195507.04 7.625e-16
196338.39 7.7314e-16
197169.8 7.8006e-16
198001.25 7.8387e-16
198832.68 7.89e-16
199664.0 8.0036e-16
200495.45 8.0093e-16
202158.21 8.1523e-16
203821.07 8.3563e-16
205483.85 8.4734e-16
207146.61 8.5468e-16
208809.47 8.7114e-16
210472.23 8.8782e-16
212135.11 8.8919e-16
213797.87 9.077e-16
215460.64 9.2582e-16
217123.52 9.2128e-16
218786.28 9.3735e-16
220449.03 9.5803e-16
222111.89 9.7255e-16
223774.68 9.701e-16
225437.53 9.9158e-16
227100.3 9.9958e-16
228763.07 1.0121e-15
230425.94 1.0451e-15
232088.71 1.0562e-15
233751.48 1.0587e-15
235414.32 1.0695e-15
237077.1 1.0925e-15
238739.96 1.109e-15
240402.73 1.11e-15
242065.5 1.1244e-15
243728.37 1.1428e-15
245391.14 1.1484e-15
247053.91 1.1608e-15
248716.78 1.1734e-15
250379.55 1.1826e-15
252042.39 1.1965e-15
253705.16 1.2079e-15
255367.93 1.2234e-15
257030.8 1.2259e-15
258693.57 1.2472e-15
260356.33 1.2582e-15
262019.19 1.2611e-15
263681.96 1.2785e-15
265344.82 1.2832e-15
267007.59 1.2863e-15
268670.38 1.3033e-15
270333.24 1.3049e-15
271995.98 1.3138e-15
273658.75 1.3355e-15
275321.64 1.343e-15
276984.4 1.3603e-15
278647.26 1.3591e-15
280310.03 1.3723e-15
281972.8 1.3896e-15
283635.66 1.3823e-15
285298.42 1.3883e-15
286961.19 1.3873e-15
288624.05 1.4057e-15
290286.82 1.4133e-15
291949.68 1.4295e-15
293612.47 1.4372e-15
295275.24 1.4398e-15
296938.1 1.4521e-15
298600.87 1.4592e-15
300263.63 1.462e-15
301926.49 1.4821e-15
303589.26 1.4832e-15
305252.12 1.472e-15
306914.89 1.4673e-15
308577.65 1.4869e-15
310240.51 1.5003e-15
311903.31 1.502e-15
313566.08 1.4919e-15
315228.94 1.4954e-15
316891.67 1.5197e-15
318554.56 1.5492e-15
320217.33 1.5643e-15
321880.1 1.5389e-15
323542.96 1.5383e-15
325205.72 1.5643e-15
326868.49 1.5977e-15
328531.38 1.61e-15
330194.15 1.6017e-15
331856.98 1.623e-15
333519.74 1.9153e-15
335182.54 1.7685e-15
336845.37 1.656e-15
338508.14 1.6731e-15
340170.9 1.6221e-15
341833.79 1.6517e-15
343496.53 1.6424e-15
