# col1 col2
# An Atlas of Galaxy Spectral Energy Distributions from the Ultraviolet to the Mid-Infrared
# Brown et al. (2014)
# http://dx.doi.org/10.5072/03/529D3551F0117
# 
# Column 1 : Restframe Wavelength (Angstrom)
# Column 2 : Flux per unit wavelength (ergs/s/cm^2/Angstrom)
# Column 3 : Observed wavelength (Angstrom)
# Column 4 : Source (0 = model, 1 = Optical Spectrum, 2 = Akari, 3 = Spitzer IRS)
# 
102.08 3.3368e-21
103.98 4.0676e-21
105.91 5.0738e-21
107.88 6.4318e-21
109.88 9.5133e-21
114.01 1.3751e-20
118.01 1.8721e-20
121.04 6.4615e-20
125.01 8.3817e-20
127.04 9.2968e-20
127.92 9.9388e-20
130.9 1.1411e-19
132.11 1.3407e-19
133.95 1.4599e-19
137.07 1.8721e-19
139.94 2.12e-19
142.87 5.18e-19
146.87 1.1758e-18
150.98 1.3284e-18
154.86 1.5112e-18
158.83 1.7192e-18
162.16 1.8808e-18
165.93 2.1347e-18
170.19 2.3732e-18
172.96 2.5783e-18
176.98 2.8466e-18
179.86 3.0643e-18
181.94 3.2161e-18
186.18 3.5264e-18
190.96 3.9385e-18
194.06 4.2299e-18
198.12 4.5744e-18
201.81 4.9697e-18
205.08 5.2763e-18
209.86 5.5505e-18
216.24 6.4318e-18
219.75 6.9077e-18
222.81 7.1835e-18
226.95 7.7327e-18
230.11 1.1922e-17
233.85 2.0292e-17
239.85 2.6142e-17
246.0 2.5665e-17
251.73 2.8011e-17
257.0 2.3952e-17
259.98 2.827e-17
264.2 3.0223e-17
269.11 3.0856e-17
274.12 3.1357e-17
279.21 3.1793e-17
283.75 3.2459e-17
289.69 3.1574e-17
295.76 3.2684e-17
301.25 3.2384e-17
308.27 3.3445e-17
317.64 3.5021e-17
328.05 3.5672e-17
338.01 3.6003e-17
348.28 3.6169e-17
357.22 3.6588e-17
366.38 3.7526e-17
374.92 3.7613e-17
385.42 3.6503e-17
395.31 3.8489e-17
405.45 3.9658e-17
413.94 4.0117e-17
421.63 4.0117e-17
430.46 4.0396e-17
441.5 4.2691e-17
450.75 4.4089e-17
460.19 4.4395e-17
469.82 4.6487e-17
479.66 5.0738e-17
489.7 5.0855e-17
499.96 5.8659e-17
505.75 5.9749e-17
511.6 9.1271e-17
519.92 9.5793e-17
529.58 1.0077e-16
539.43 9.8024e-17
549.46 1.1438e-16
559.67 1.4768e-16
570.08 1.7472e-16
579.34 1.8379e-16
590.11 2.1298e-16
599.7 2.1006e-16
609.44 2.2874e-16
619.35 2.9739e-16
629.41 3.1502e-16
639.64 3.5837e-16
650.03 3.8756e-16
657.56 3.9476e-16
665.17 4.5116e-16
674.43 4.9812e-16
685.38 4.779e-16
694.92 5.9612e-16
704.59 5.4367e-16
716.03 7.1012e-16
726.0 7.6266e-16
734.4 8.0972e-16
744.62 8.5967e-16
754.98 9.1271e-16
765.48 9.0019e-16
774.34 1.0407e-15
785.12 1.0503e-15
794.21 1.1623e-15
805.26 1.2426e-15
814.58 1.3132e-15
825.91 1.4104e-15
835.48 1.2032e-15
845.15 1.5217e-15
854.94 1.5716e-15
864.84 1.6956e-15
874.85 1.792e-15
884.98 1.8894e-15
895.23 1.9785e-15
905.59 2.0153e-15
913.97 2.2926e-15
924.56 8.7364e-15
935.26 1.7153e-14
943.92 2.9671e-14
954.85 3.9295e-14
965.9 4.4293e-14
974.84 1.017e-14
986.13 3.7182e-14
995.25 3.8312e-14
1004.46 5.3007e-14
1016.09 5.2159e-14
1025.5 2.6628e-14
1034.98 4.021e-14
1044.56 6.7505e-14
1054.23 6.5213e-14
1063.98 5.3129e-14
1073.83 6.1707e-14
1083.76 5.0855e-14
1093.79 6.4615e-14
1103.91 6.086e-14
1114.12 5.8794e-14
1124.43 5.192e-14
1134.84 6.4764e-14
1145.34 5.9887e-14
1155.94 6.2278e-14
1163.95 6.2999e-14
1174.72 4.2789e-14
1185.59 6.1707e-14
1193.81 4.9242e-14
1204.85 3.7613e-14
1216.0 2.7563e-14
1224.43 4.8121e-14
1235.76 6.329e-14
1244.32 6.6273e-14
1255.84 6.3875e-14
1264.54 5.9475e-14
1276.24 6.876e-14
1285.09 7.0199e-14
1294.0 5.7721e-14
1305.97 5.893e-14
1315.02 6.9396e-14
1324.14 6.5816e-14
1336.39 6.072e-14
1345.66 6.7816e-14
1354.98 6.6273e-14
1364.38 6.072e-14
1373.83 6.1565e-14
1386.54 6.1707e-14
1396.16 4.9927e-14
1405.83 5.1326e-14
1415.58 5.7854e-14
1425.39 5.7588e-14
1435.27 5.893e-14
1441.9 6.072e-14
1448.55 6.072e-14
1455.24 5.9065e-14
1465.32 5.5377e-14
1475.48 5.6019e-14
1485.71 5.6277e-14
1496.01 5.6277e-14
1506.38 5.3129e-14
1513.33 4.8232e-14
1516.82 5.0505e-14
1523.82 5.0389e-14
1534.38 4.3988e-14
1545.02 4.3685e-14
1555.73 4.2593e-14
1566.51 4.5639e-14
1573.74 4.8566e-14
1584.65 4.9812e-14
1595.64 5.0273e-14
1606.7 4.9697e-14
1614.11 4.9355e-14
1625.3 4.801e-14
1636.57 5.0621e-14
1644.12 5.0855e-14
1655.52 4.9128e-14
1663.16 5.1562e-14
1670.84 4.8121e-14
1678.55 5.2642e-14
1686.3 5.3007e-14
1694.08 5.0505e-14
1705.82 4.9128e-14
1713.7 4.6702e-14
1725.58 4.6274e-14
1733.54 4.879e-14
1745.56 4.768e-14
1753.61 4.9355e-14
1765.77 4.7134e-14
1773.92 4.6594e-14
1786.21 4.757e-14
1794.46 4.9242e-14
1806.9 4.9355e-14
1815.24 4.5534e-14
1823.62 4.6702e-14
1836.26 4.5429e-14
1844.73 4.2202e-14
1853.25 4.2202e-14
1866.1 4.3086e-14
1874.71 4.5639e-14
1883.36 4.1912e-14
1896.42 4.0025e-14
1905.17 4.2789e-14
1913.96 4.0769e-14
1922.8 3.9476e-14
1936.13 4.1527e-14
1945.06 4.2593e-14
1954.04 3.9385e-14
1967.59 4.2593e-14
1976.67 4.3887e-14
1985.79 4.1527e-14
1994.96 4.0676e-14
2004.17 4.1912e-14
2013.42 4.1147e-14
2022.71 4.2593e-14
2036.73 3.9933e-14
2046.13 4.0863e-14
2055.58 3.7786e-14
2065.06 3.8845e-14
2074.6 4.2008e-14
2079.38 3.9295e-14
2084.17 4.0769e-14
2093.79 3.8845e-14
2103.46 3.9567e-14
2113.17 3.9933e-14
2122.92 4.021e-14
2132.72 3.8845e-14
2142.56 3.8312e-14
2157.42 3.9567e-14
2167.37 3.8845e-14
2177.38 3.8666e-14
2187.43 3.7786e-14
2197.53 3.8845e-14
2202.59 3.8224e-14
2212.76 3.7097e-14
2222.97 3.6252e-14
2233.23 3.7182e-14
2243.54 3.6503e-14
2253.9 3.5427e-14
2264.3 3.6003e-14
2274.75 3.6169e-14
2285.25 3.6419e-14
2295.8 3.4544e-14
2306.4 3.4948e-14
2317.04 3.4e-14
2322.38 2.9141e-14
2333.1 3.2476e-14
2343.87 3.2182e-14
2354.69 3.3012e-14
2365.56 3.1822e-14
2376.48 3.1899e-14
2387.45 3.0679e-14
2392.95 3.154e-14
2404.0 3.0756e-14
2415.09 3.0973e-14
2426.24 3.1626e-14
2437.44 3.0626e-14
2443.06 3.1414e-14
2454.33 3.113e-14
2465.66 3.0778e-14
2477.04 3.0151e-14
2482.75 3.0292e-14
2494.21 2.7189e-14
2505.73 3.03e-14
2511.5 2.841e-14
2517.29 2.9343e-14
2523.1 2.8743e-14
2534.74 2.8747e-14
2546.44 2.8226e-14
2552.31 2.9019e-14
2564.09 2.8625e-14
2575.93 2.9228e-14
2587.82 2.8965e-14
2593.78 2.8701e-14
2605.76 2.8116e-14
2617.78 2.7798e-14
2623.82 2.8122e-14
2635.93 2.8387e-14
2642.01 2.9184e-14
2654.2 2.939e-14
2666.45 2.7878e-14
2672.6 2.8333e-14
2684.94 2.8338e-14
2697.33 2.738e-14
2703.55 2.7508e-14
2716.03 2.6886e-14
2722.29 2.6703e-14
2734.85 2.7078e-14
2747.48 2.5567e-14
2753.81 2.5687e-14
2766.52 2.5929e-14
2772.9 2.6413e-14
2785.7 2.5756e-14
2792.12 2.3492e-14
2805.01 2.4209e-14
2817.95 2.5825e-14
2824.45 2.6066e-14
2837.49 2.5243e-14
2844.03 2.5014e-14
2857.15 2.4561e-14
2863.74 2.5426e-14
2876.96 2.5313e-14
2883.59 2.5199e-14
2896.9 2.5029e-14
2910.27 2.5675e-14
2930.45 2.5039e-14
2950.76 2.4531e-14
2971.21 2.4537e-14
2991.81 2.4262e-14
3012.55 2.4046e-14
3033.43 2.3941e-14
3047.43 2.3725e-14
3068.55 2.3622e-14
3089.82 2.3304e-14
3111.24 2.3256e-14
3132.81 2.2785e-14
3147.27 2.2684e-14
3169.08 2.2482e-14
3191.05 2.1724e-14
3213.17 2.1881e-14
3228.0 2.1288e-14
3250.38 2.1789e-14
3272.91 2.1946e-14
3288.02 2.1649e-14
3310.81 2.1407e-14
3318.44 2.1958e-14
3326.09 2.2011e-14
3333.76 2.2063e-14
3341.44 2.1072e-14
3349.14 2.2169e-14
3356.87 2.1173e-14
3364.6 2.0315e-14
3372.36 2.0085e-14
3380.13 2.1033e-14
3387.93 2.1575e-14
3395.73 2.1183e-14
3403.56 2.1136e-14
3411.41 2.0515e-14
3419.27 2.0802e-14
3427.15 2.1045e-14
3435.06 2.1193e-14
3442.97 2.0101e-14
3450.91 2.0619e-14
3458.87 2.0198e-14
3466.84 2.0107e-14
3474.83 2.0483e-14
3482.84 1.988e-14
3490.87 2.0534e-14
3498.92 1.9884e-14
3506.98 2.0256e-14
3515.07 1.9435e-14
3523.17 2.0074e-14
3531.29 1.9846e-14
3539.43 2.0357e-14
3547.59 2.069e-14
3555.77 2.0408e-14
3563.97 2.0223e-14
3572.18 1.9403e-14
3580.42 1.892e-14
3588.67 1.7987e-14
3596.95 1.9011e-14
3605.24 1.9322e-14
3613.55 1.8884e-14
3614.78 1.8666e-14
3617.52 1.8735e-14
3620.26 2.1149e-14
3622.99 1.9601e-14
3625.73 2.2176e-14
3628.47 1.924e-14
3631.2 1.9647e-14
3633.94 2.0162e-14
3636.68 2.0857e-14
3639.41 2.015e-14
3642.15 1.9152e-14
3644.89 2.1048e-14
3647.62 2.001e-14
3650.36 1.9741e-14
3653.1 1.8177e-14
3655.84 1.8848e-14
3658.57 1.8737e-14
3661.31 1.8685e-14
3664.05 1.8658e-14
3666.78 2.0065e-14
3669.52 1.8737e-14
3672.26 1.7748e-14
3674.99 1.8875e-14
3677.73 1.9019e-14
3680.47 1.9368e-14
3683.2 1.7985e-14
3685.94 1.7848e-14
3688.68 2.0059e-14
3691.42 1.9982e-14
3694.15 1.893e-14
3696.89 1.9134e-14
3699.63 1.8186e-14
3702.36 1.7168e-14
3705.1 1.7458e-14
3707.84 1.7542e-14
3710.57 1.9868e-14
3713.31 2.2993e-14
3716.05 3.3839e-14
3718.79 4.8097e-14
3721.52 7.9438e-14
3724.26 1.2265e-13
3727.0 1.3327e-13
3729.73 9.9069e-14
3732.47 5.5822e-14
3735.21 3.0052e-14
3737.94 2.2615e-14
3740.68 2.0334e-14
3743.42 2.0342e-14
3746.15 1.8451e-14
3748.89 1.8859e-14
3751.63 1.9736e-14
3754.37 2.0645e-14
3757.1 2.1895e-14
3759.84 2.1437e-14
3762.58 2.138e-14
3765.31 2.1105e-14
3768.05 2.1041e-14
3770.79 2.0669e-14
3773.52 2.0706e-14
3776.26 2.2708e-14
3779.0 2.3408e-14
3781.73 2.2851e-14
3784.47 2.215e-14
3787.21 2.4139e-14
3789.95 2.1913e-14
3792.68 2.1186e-14
3795.42 1.935e-14
3798.16 2.0369e-14
3800.89 2.0946e-14
3803.63 2.2295e-14
3806.37 2.2252e-14
3809.1 2.2323e-14
3811.84 2.3552e-14
3814.58 2.3293e-14
3817.32 2.1809e-14
3820.05 2.2469e-14
3822.79 2.225e-14
3825.53 2.1202e-14
3828.26 2.0595e-14
3831.0 2.0493e-14
3833.74 2.0027e-14
3836.47 2.0783e-14
3839.21 2.0214e-14
3841.95 2.1604e-14
3844.68 2.2087e-14
3847.42 2.2635e-14
3850.16 2.3469e-14
3852.9 2.3904e-14
3855.63 2.485e-14
3858.37 2.6059e-14
3861.11 2.6932e-14
3863.84 2.7983e-14
3866.58 2.8744e-14
3869.32 2.855e-14
3872.05 2.6337e-14
3874.79 2.3116e-14
3877.53 2.2996e-14
3880.27 2.3077e-14
3883.0 2.4571e-14
3885.74 2.596e-14
3888.48 2.4277e-14
3891.21 2.3218e-14
3893.95 2.1687e-14
3896.69 2.2246e-14
3899.42 2.251e-14
3902.16 2.3612e-14
3904.9 2.4267e-14
3907.63 2.5034e-14
3910.37 2.3984e-14
3913.11 2.4287e-14
3915.85 2.3809e-14
3918.58 2.4192e-14
3921.32 2.3702e-14
3924.06 2.2424e-14
3926.79 2.0972e-14
3929.53 2.0213e-14
3932.27 1.9916e-14
3935.0 2.0497e-14
3937.74 2.2454e-14
3940.48 2.2837e-14
3943.21 2.2964e-14
3945.95 2.3876e-14
3948.69 2.2888e-14
3951.43 2.385e-14
3954.16 2.2669e-14
3956.9 2.1599e-14
3959.64 2.1603e-14
3962.37 2.2388e-14
3965.11 2.2374e-14
3967.85 2.4143e-14
3970.58 2.2426e-14
3973.32 2.1531e-14
3976.06 2.2464e-14
3978.8 2.2595e-14
3981.53 2.232e-14
3984.27 2.3862e-14
3987.01 2.4611e-14
3989.74 2.4295e-14
3992.48 2.448e-14
3995.22 2.4948e-14
3997.95 2.563e-14
4000.69 2.52e-14
4003.43 2.4813e-14
4006.16 2.5017e-14
4008.9 2.4397e-14
4011.64 2.5269e-14
4014.38 2.6485e-14
4017.11 2.5012e-14
4019.85 2.6441e-14
4022.59 2.6748e-14
4025.32 2.6073e-14
4028.06 2.5949e-14
4030.8 2.43e-14
4033.53 2.5721e-14
4036.27 2.6246e-14
4039.01 2.5088e-14
4041.74 2.4707e-14
4044.48 2.6185e-14
4047.22 2.6119e-14
4049.96 2.6511e-14
4052.69 2.5053e-14
4055.43 2.5348e-14
4058.17 2.6286e-14
4060.9 2.5244e-14
4063.64 2.593e-14
4066.38 2.6602e-14
4069.11 2.5851e-14
4071.85 2.507e-14
4074.59 2.5243e-14
4077.33 2.5134e-14
4080.06 2.4318e-14
4082.8 2.4371e-14
4085.54 2.3771e-14
4088.27 2.2682e-14
4091.01 2.4121e-14
4093.75 2.5297e-14
4096.48 2.8663e-14
4099.22 3.0095e-14
4101.96 2.863e-14
4104.69 2.4468e-14
4107.43 2.2865e-14
4110.17 2.275e-14
4112.91 2.4117e-14
4115.64 2.3926e-14
4118.38 2.4582e-14
4121.12 2.4707e-14
4123.85 2.3585e-14
4126.59 2.3635e-14
4129.33 2.3995e-14
4132.06 2.4472e-14
4134.8 2.4523e-14
4137.54 2.4143e-14
4140.28 2.3831e-14
4143.01 2.3999e-14
4145.75 2.3412e-14
4148.49 2.4292e-14
4151.22 2.4638e-14
4153.96 2.424e-14
4156.7 2.5106e-14
4159.43 2.5649e-14
4162.17 2.4285e-14
4164.91 2.4047e-14
4167.64 2.4124e-14
4170.38 2.3874e-14
4173.12 2.3122e-14
4175.86 2.3425e-14
4178.59 2.3528e-14
4181.33 2.3614e-14
4184.07 2.3796e-14
4186.8 2.4278e-14
4189.54 2.4222e-14
4192.28 2.3742e-14
4195.01 2.3419e-14
4197.75 2.3597e-14
4200.49 2.343e-14
4203.22 2.364e-14
4205.96 2.3948e-14
4208.7 2.4595e-14
4211.44 2.4376e-14
4214.17 2.3899e-14
4216.91 2.3676e-14
4219.65 2.3567e-14
4222.38 2.3331e-14
4225.12 2.3235e-14
4227.86 2.3133e-14
4230.59 2.3547e-14
4233.33 2.3993e-14
4236.07 2.4096e-14
4238.81 2.5198e-14
4241.54 2.5144e-14
4244.28 2.4316e-14
4247.02 2.3529e-14
4249.75 2.3563e-14
4252.49 2.3374e-14
4255.23 2.2884e-14
4257.96 2.3676e-14
4260.7 2.4272e-14
4263.44 2.4059e-14
4266.17 2.4324e-14
4268.91 2.3509e-14
4271.65 2.3876e-14
4274.39 2.3308e-14
4277.12 2.3496e-14
4279.86 2.3798e-14
4282.6 2.3736e-14
4285.33 2.2603e-14
4288.07 2.2621e-14
4290.81 2.3075e-14
4293.54 2.2757e-14
4296.28 2.1906e-14
4299.02 2.2042e-14
4301.75 2.2321e-14
4304.49 2.1985e-14
4307.23 2.1549e-14
4309.97 2.1498e-14
4312.7 2.3212e-14
4315.44 2.4091e-14
4318.18 2.264e-14
4320.91 2.1931e-14
4323.65 2.2183e-14
4326.39 2.1965e-14
4329.12 2.2343e-14
4331.86 2.6738e-14
4334.6 3.4219e-14
4337.34 3.9707e-14
4340.07 3.6138e-14
4342.81 2.934e-14
4345.55 2.4113e-14
4348.28 2.1878e-14
4351.02 2.1771e-14
4353.76 2.257e-14
4356.49 2.3007e-14
4359.23 2.3413e-14
4361.97 2.3644e-14
4364.7 2.3406e-14
4367.44 2.2523e-14
4370.18 2.2614e-14
4372.92 2.3053e-14
4375.65 2.2779e-14
4378.39 2.1389e-14
4381.13 2.2107e-14
4383.86 2.2805e-14
4386.6 2.1896e-14
4389.34 2.181e-14
4392.07 2.3727e-14
4394.81 2.2403e-14
4397.55 2.3086e-14
4400.29 2.2243e-14
4403.02 2.3044e-14
4405.76 2.2308e-14
4408.5 2.3206e-14
4411.23 2.3094e-14
4413.97 2.2901e-14
4416.71 2.2399e-14
4419.44 2.1954e-14
4422.18 2.4139e-14
4424.92 2.3063e-14
4427.65 2.3092e-14
4430.39 2.3691e-14
4433.13 2.3974e-14
4435.87 2.3633e-14
4438.6 2.2865e-14
4441.34 2.3183e-14
4444.08 2.2693e-14
4446.81 2.3424e-14
4449.55 2.365e-14
4452.29 2.3477e-14
4455.02 2.34e-14
4457.76 2.3311e-14
4460.5 2.258e-14
4463.23 2.2771e-14
4465.97 2.465e-14
4468.71 2.5142e-14
4471.45 2.4671e-14
4474.18 2.4024e-14
4476.92 2.3202e-14
4479.66 2.2917e-14
4482.39 2.4063e-14
4485.13 2.2502e-14
4487.87 2.3354e-14
4490.6 2.2681e-14
4493.34 2.424e-14
4496.08 2.326e-14
4498.82 2.3917e-14
4501.55 2.4057e-14
4504.29 2.444e-14
4507.03 2.3699e-14
4509.76 2.3692e-14
4512.5 2.3371e-14
4515.24 2.354e-14
4517.97 2.3001e-14
4520.71 2.3044e-14
4523.45 2.2285e-14
4526.18 2.2739e-14
4528.92 2.2582e-14
4531.66 2.2515e-14
4534.4 2.2911e-14
4537.13 2.3346e-14
4539.87 2.3501e-14
4542.61 2.2741e-14
4545.34 2.2467e-14
4548.08 2.3459e-14
4550.82 2.2455e-14
4553.55 2.248e-14
4556.29 2.2714e-14
4559.03 2.3525e-14
4561.76 2.3382e-14
4564.5 2.3684e-14
4567.24 2.3261e-14
4569.98 2.3028e-14
4572.71 2.3613e-14
4575.45 2.3257e-14
4578.19 2.2898e-14
4580.92 2.3635e-14
4583.66 2.3032e-14
4586.4 2.2895e-14
4589.13 2.2985e-14
4591.87 2.2907e-14
4594.61 2.2548e-14
4597.35 2.2954e-14
4600.08 2.332e-14
4602.82 2.3543e-14
4605.56 2.3942e-14
4608.29 2.3656e-14
4611.03 2.3306e-14
4613.77 2.339e-14
4616.5 2.2927e-14
4619.24 2.4054e-14
4621.98 2.3233e-14
4624.71 2.3526e-14
4627.45 2.3695e-14
4630.19 2.4066e-14
4632.93 2.3637e-14
4635.66 2.3049e-14
4638.4 2.2831e-14
4641.14 2.3578e-14
4643.87 2.296e-14
4646.61 2.2905e-14
4649.35 2.2821e-14
4652.08 2.4047e-14
4654.82 2.4927e-14
4657.56 2.5019e-14
4660.3 2.3223e-14
4663.03 2.3029e-14
4665.77 2.2465e-14
4668.51 2.2874e-14
4671.24 2.363e-14
4673.98 2.2881e-14
4676.72 2.3875e-14
4679.45 2.3542e-14
4682.19 2.3353e-14
4684.93 2.3829e-14
4687.66 2.3379e-14
4690.4 2.2789e-14
4693.14 2.2965e-14
4695.88 2.2785e-14
4698.61 2.318e-14
4701.35 2.2964e-14
4704.09 2.2774e-14
4706.82 2.2593e-14
4709.56 2.2651e-14
4712.3 2.2911e-14
4715.03 2.298e-14
4717.77 2.3018e-14
4720.51 2.3618e-14
4723.24 2.2878e-14
4725.98 2.2731e-14
4728.72 2.1879e-14
4731.46 2.2073e-14
4734.19 2.2429e-14
4736.93 2.2794e-14
4739.67 2.3029e-14
4742.4 2.2538e-14
4745.14 2.266e-14
4747.88 2.3198e-14
4750.61 2.2589e-14
4753.35 2.2543e-14
4756.09 2.2331e-14
4758.83 2.2078e-14
4761.56 2.2357e-14
4764.3 2.2503e-14
4767.04 2.2316e-14
4769.77 2.2347e-14
4772.51 2.2724e-14
4775.25 2.3273e-14
4777.98 2.2859e-14
4780.72 2.2808e-14
4783.46 2.3063e-14
4786.19 2.3341e-14
4788.93 2.3105e-14
4791.67 2.243e-14
4794.41 2.2928e-14
4797.14 2.2807e-14
4799.88 2.2308e-14
4802.62 2.2704e-14
4805.35 2.2262e-14
4808.09 2.2338e-14
4810.83 2.2913e-14
4813.56 2.2851e-14
4816.3 2.25e-14
4819.04 2.2396e-14
4821.77 2.2504e-14
4824.51 2.2327e-14
4827.25 2.2342e-14
4829.99 2.2507e-14
4832.72 2.2176e-14
4835.46 2.255e-14
4838.2 2.1566e-14
4840.93 2.1677e-14
4843.67 2.1416e-14
4846.41 2.1138e-14
4849.14 2.2239e-14
4851.88 2.9442e-14
4854.62 4.5484e-14
4857.36 6.3952e-14
4860.09 6.6515e-14
4862.83 5.0733e-14
4865.57 3.2414e-14
4868.3 2.321e-14
4871.04 2.0517e-14
4873.78 2.1108e-14
4876.51 2.1165e-14
4879.25 2.0749e-14
4881.99 2.0693e-14
4884.72 2.0682e-14
4887.46 2.1204e-14
4890.2 2.1102e-14
4892.94 2.0795e-14
4895.67 2.116e-14
4898.41 2.1527e-14
4901.15 2.096e-14
4903.88 2.0729e-14
4906.62 2.08e-14
4909.36 2.0881e-14
4912.09 2.1145e-14
4914.83 2.1583e-14
4917.57 2.0679e-14
4920.31 2.0979e-14
4923.04 2.1157e-14
4925.78 2.0586e-14
4928.52 2.1309e-14
4931.25 2.1117e-14
4933.99 2.0409e-14
4936.73 2.1341e-14
4939.46 2.1377e-14
4942.2 2.2114e-14
4944.94 2.2571e-14
4947.67 2.4625e-14
4950.41 3.0357e-14
4953.15 4.1743e-14
4955.89 5.1242e-14
4958.62 4.8138e-14
4961.36 3.7285e-14
4964.1 2.7319e-14
4966.83 2.3428e-14
4969.57 2.2729e-14
4972.31 2.2185e-14
4975.04 2.1437e-14
4977.78 2.1015e-14
4980.52 2.0932e-14
4983.25 2.1282e-14
4985.99 2.1343e-14
4988.73 2.1234e-14
4991.47 2.1479e-14
4994.2 2.4689e-14
4996.94 3.5243e-14
4999.68 6.2946e-14
5002.41 9.7176e-14
5005.15 1.0945e-13
5007.89 8.6138e-14
5010.62 5.0541e-14
5013.36 2.9918e-14
5016.1 2.2519e-14
5018.84 2.0632e-14
5021.57 2.1108e-14
5024.31 2.0846e-14
5027.05 2.0271e-14
5029.78 2.065e-14
5032.52 2.0485e-14
5035.26 1.9969e-14
5037.99 2.0393e-14
5040.73 2.0593e-14
5043.47 2.074e-14
5046.2 2.0547e-14
5048.94 2.0117e-14
5051.68 2.103e-14
5054.42 2.155e-14
5057.15 2.1294e-14
5059.89 2.1116e-14
5062.63 2.0822e-14
5065.36 2.0498e-14
5068.1 2.0329e-14
5070.84 2.0425e-14
5073.57 2.0502e-14
5076.31 2.0708e-14
5079.05 2.0382e-14
5081.78 2.0213e-14
5084.52 2.0544e-14
5087.26 2.0631e-14
5090.0 2.0518e-14
5092.73 2.0531e-14
5095.47 2.0387e-14
5098.21 1.9845e-14
5100.94 2.0288e-14
5103.68 2.0575e-14
5106.42 2.0444e-14
5109.15 2.0346e-14
5111.89 2.0663e-14
5114.63 2.098e-14
5117.37 2.0651e-14
5120.1 1.9953e-14
5122.84 2.0543e-14
5125.58 2.0425e-14
5128.31 2.0279e-14
5131.05 1.9603e-14
5133.79 1.9566e-14
5136.52 1.9842e-14
5139.26 1.9883e-14
5142.0 1.9949e-14
5144.73 1.9857e-14
5147.47 1.9681e-14
5150.21 1.9735e-14
5152.95 1.9837e-14
5155.68 2.0176e-14
5158.42 2.0363e-14
5161.16 1.9638e-14
5163.89 1.87e-14
5166.63 1.7865e-14
5169.37 1.7962e-14
5172.1 1.8706e-14
5174.84 1.9147e-14
5177.58 1.8965e-14
5180.32 1.8804e-14
5183.05 1.9374e-14
5185.79 1.9873e-14
5188.53 2.0014e-14
5191.26 2.0159e-14
5194.0 2.0151e-14
5196.74 2.0251e-14
5199.47 2.0101e-14
5202.21 1.9737e-14
5204.95 1.9253e-14
5207.68 1.9497e-14
5210.42 1.9312e-14
5213.16 1.9333e-14
5215.9 1.959e-14
5218.63 1.955e-14
5221.37 1.9455e-14
5224.11 1.9239e-14
5226.84 1.9285e-14
5229.58 1.97e-14
5232.32 1.98e-14
5235.05 1.9829e-14
5237.79 2.0023e-14
5240.53 1.9558e-14
5243.26 1.9579e-14
5246.0 1.9987e-14
5248.74 1.9728e-14
5251.48 2.015e-14
5254.21 2.0401e-14
5256.95 1.9738e-14
5259.69 1.9601e-14
5262.42 1.9092e-14
5265.16 1.8524e-14
5267.9 1.8749e-14
5270.63 1.9139e-14
5273.37 1.972e-14
5276.11 1.9928e-14
5278.85 1.9382e-14
5281.58 1.9611e-14
5284.32 1.9641e-14
5287.06 1.9858e-14
5289.79 2.046e-14
5292.53 1.9981e-14
5295.27 1.9837e-14
5298.0 1.982e-14
5300.74 1.9973e-14
5303.48 2.0401e-14
5306.21 2.0365e-14
5308.95 2.0396e-14
5311.69 2.0235e-14
5314.43 2.0326e-14
5317.16 1.9937e-14
5319.9 1.9539e-14
5322.64 1.868e-14
5325.37 1.8377e-14
5328.11 1.9416e-14
5330.85 1.9431e-14
5333.58 1.9617e-14
5336.32 2.0293e-14
5339.06 2.0001e-14
5341.79 1.9707e-14
5344.53 1.9838e-14
5347.27 1.9871e-14
5350.01 2.0315e-14
5352.74 2.0203e-14
5355.48 2.0143e-14
5358.22 2.0136e-14
5360.95 1.9822e-14
5363.69 1.9267e-14
5366.43 1.9333e-14
5369.16 1.9452e-14
5371.9 1.9811e-14
5374.64 2.0201e-14
5377.38 2.0016e-14
5380.11 1.9992e-14
5382.85 1.9757e-14
5385.59 1.9947e-14
5388.32 1.9305e-14
5391.06 1.8908e-14
5393.8 1.8609e-14
5396.53 1.9351e-14
5399.27 1.9072e-14
5402.01 1.8942e-14
5404.74 1.8995e-14
5407.48 1.8936e-14
5410.22 1.9309e-14
5412.96 1.9244e-14
5415.69 1.9357e-14
5418.43 2.0237e-14
5421.17 1.9411e-14
5423.9 1.9323e-14
5426.64 1.941e-14
5429.38 1.9294e-14
5432.11 1.9816e-14
5434.85 1.9654e-14
5437.59 1.9909e-14
5440.33 1.9859e-14
5443.06 1.9174e-14
5445.8 1.9059e-14
5448.54 1.8738e-14
5451.27 1.9175e-14
5454.01 1.9414e-14
5456.75 1.9392e-14
5459.48 1.9311e-14
5462.22 1.9665e-14
5464.96 1.9129e-14
5467.69 1.9396e-14
5470.43 1.9423e-14
5473.17 1.8511e-14
5475.91 1.9307e-14
5478.64 1.9355e-14
5481.38 1.8984e-14
5484.12 1.938e-14
5486.85 1.9072e-14
5489.59 1.923e-14
5492.33 1.9434e-14
5495.06 1.9438e-14
5497.8 1.9377e-14
5500.54 1.9039e-14
5503.27 1.8846e-14
5506.01 1.8518e-14
5508.75 1.8777e-14
5511.49 1.8838e-14
5514.22 1.9529e-14
5516.96 1.9497e-14
5519.7 1.9576e-14
5522.43 1.9055e-14
5525.17 1.8676e-14
5527.91 1.9322e-14
5530.64 1.929e-14
5533.38 1.9489e-14
5536.12 1.9318e-14
5538.86 1.8576e-14
5541.59 1.8707e-14
5544.33 1.9632e-14
5547.07 1.9795e-14
5549.8 1.847e-14
5552.54 1.8874e-14
5555.28 1.9174e-14
5558.01 1.9274e-14
5560.75 1.9947e-14
5563.49 1.8798e-14
5566.22 1.9251e-14
5568.96 1.9038e-14
5571.7 1.8408e-14
5574.44 1.9966e-14
5577.17 1.9473e-14
5579.91 1.9042e-14
5582.65 1.8656e-14
5585.38 1.8288e-14
5588.12 1.8571e-14
5590.86 1.9118e-14
5593.59 1.9134e-14
5596.33 1.8394e-14
5599.07 1.8551e-14
5601.81 1.793e-14
5604.54 1.819e-14
5607.28 1.8666e-14
5610.02 1.905e-14
5612.75 1.9208e-14
5615.49 1.878e-14
5618.23 1.8467e-14
5620.96 1.8706e-14
5623.7 1.8274e-14
5626.44 1.8314e-14
5629.17 1.8685e-14
5631.91 1.8952e-14
5634.65 1.8043e-14
5637.39 1.8029e-14
5640.12 1.8517e-14
5642.86 1.8711e-14
5645.6 1.8797e-14
5648.33 1.8792e-14
5651.07 1.8868e-14
5653.81 1.8969e-14
5656.54 1.8999e-14
5659.28 1.8215e-14
5662.02 1.8582e-14
5664.75 1.8908e-14
5667.49 1.7789e-14
5670.23 1.8386e-14
5672.97 1.848e-14
5675.7 1.9394e-14
5678.44 1.7729e-14
5681.18 1.9141e-14
5683.91 1.7737e-14
5686.65 1.8442e-14
5689.39 1.9265e-14
5692.12 1.9317e-14
5694.86 1.8385e-14
5697.6 1.8607e-14
5700.34 1.8172e-14
5703.07 1.8653e-14
5705.81 1.7977e-14
5708.55 1.7996e-14
5711.28 1.786e-14
5714.02 1.7976e-14
5716.76 1.9041e-14
5719.49 1.8785e-14
5722.23 1.9201e-14
5724.97 1.8937e-14
5727.7 1.8297e-14
5730.44 1.8818e-14
5733.18 1.886e-14
5735.92 1.8865e-14
5738.65 1.9299e-14
5741.39 1.9056e-14
5744.13 1.8019e-14
5746.86 1.8288e-14
5749.6 1.8457e-14
5752.34 1.8828e-14
5755.07 1.9145e-14
5757.81 1.9103e-14
5760.55 1.9206e-14
5763.28 1.9062e-14
5766.02 1.8531e-14
5768.76 1.8404e-14
5771.5 1.8442e-14
5774.23 1.9119e-14
5776.97 1.7563e-14
5779.71 1.7943e-14
5782.44 1.8265e-14
5785.18 1.8942e-14
5787.92 1.8437e-14
5790.65 1.8516e-14
5793.39 1.7975e-14
5796.13 1.8189e-14
5798.87 1.8713e-14
5801.6 1.8451e-14
5804.34 1.7897e-14
5807.08 1.8168e-14
5809.81 1.864e-14
5812.55 1.837e-14
5815.29 1.8664e-14
5818.02 1.7917e-14
5820.76 1.833e-14
5823.5 1.888e-14
5826.23 1.8895e-14
5828.97 1.9444e-14
5831.71 1.8988e-14
5834.45 1.9206e-14
5837.18 1.8721e-14
5839.92 1.8515e-14
5842.66 1.7906e-14
5845.39 1.8315e-14
5848.13 1.8798e-14
5850.87 1.7906e-14
5853.6 1.7975e-14
5856.34 1.8629e-14
5859.08 1.79e-14
5861.82 1.923e-14
5864.55 1.785e-14
5867.29 1.8404e-14
5870.03 1.8385e-14
5872.76 1.8542e-14
5875.5 1.8444e-14
5878.24 1.8028e-14
5880.97 1.7324e-14
5883.71 1.8427e-14
5886.45 1.7722e-14
5889.18 1.6417e-14
5891.92 1.6186e-14
5894.66 1.7325e-14
5897.4 1.777e-14
5900.13 1.7677e-14
5902.87 1.8182e-14
5905.61 1.8053e-14
5908.34 1.745e-14
5911.08 1.7174e-14
5913.82 1.7723e-14
5916.55 1.8404e-14
5919.29 1.7921e-14
5922.03 1.7564e-14
5924.76 1.7513e-14
5927.5 1.7926e-14
5930.24 1.7741e-14
5932.98 1.7371e-14
5935.71 1.7726e-14
5938.45 1.8307e-14
5941.19 1.8161e-14
5943.92 1.7486e-14
5946.66 1.8279e-14
5949.4 1.7208e-14
5952.13 1.7221e-14
5954.87 1.7568e-14
5957.61 1.8186e-14
5960.35 1.7543e-14
5963.08 1.7618e-14
5965.82 1.7801e-14
5968.56 1.8688e-14
5971.29 1.7855e-14
5974.03 1.7894e-14
5976.77 1.7887e-14
5979.5 1.7618e-14
5982.24 1.7752e-14
5984.98 1.7709e-14
5987.71 1.714e-14
5990.45 1.7147e-14
5993.19 1.7716e-14
5995.93 1.7675e-14
5998.66 1.7668e-14
6001.4 1.6821e-14
6004.14 1.7904e-14
6006.87 1.6931e-14
6009.61 1.7939e-14
6012.35 1.7991e-14
6015.08 1.7197e-14
6017.82 1.7266e-14
6020.56 1.7659e-14
6023.29 1.7589e-14
6026.03 1.7989e-14
6028.77 1.7728e-14
6031.51 1.8036e-14
6034.24 1.7875e-14
6036.98 1.6988e-14
6039.72 1.7789e-14
6042.45 1.7781e-14
6045.19 1.7834e-14
6047.93 1.7143e-14
6050.66 1.776e-14
6053.4 1.8344e-14
6056.14 1.8212e-14
6058.88 1.7231e-14
6061.61 1.7699e-14
6064.35 1.7105e-14
6067.09 1.7642e-14
6069.82 1.8106e-14
6072.56 1.7673e-14
6075.3 1.7445e-14
6078.03 1.7183e-14
6080.77 1.7212e-14
6083.51 1.7466e-14
6086.24 1.7395e-14
6088.98 1.756e-14
6091.72 1.7187e-14
6094.46 1.766e-14
6097.19 1.6906e-14
6099.93 1.7508e-14
6102.67 1.6921e-14
6105.4 1.7525e-14
6108.14 1.7102e-14
6110.88 1.7863e-14
6113.61 1.6314e-14
6116.35 1.6684e-14
6119.09 1.7361e-14
6121.83 1.7841e-14
6124.56 1.7169e-14
6127.3 1.8008e-14
6130.04 1.7863e-14
6132.77 1.7443e-14
6135.51 1.677e-14
6138.25 1.7e-14
6140.98 1.7006e-14
6143.72 1.722e-14
6146.46 1.6938e-14
6149.19 1.6958e-14
6151.93 1.6594e-14
6154.67 1.6762e-14
6157.41 1.6843e-14
6160.14 1.6074e-14
6162.88 1.6063e-14
6165.62 1.6038e-14
6168.35 1.5989e-14
6171.09 1.6351e-14
6173.83 1.6384e-14
6176.56 1.6875e-14
6179.3 1.6552e-14
6182.04 1.6843e-14
6184.77 1.6855e-14
6187.51 1.661e-14
6190.25 1.6198e-14
6192.99 1.7006e-14
6195.72 1.659e-14
6198.46 1.7186e-14
6201.2 1.7005e-14
6203.93 1.73e-14
6206.67 1.6975e-14
6209.41 1.5874e-14
6212.14 1.636e-14
6214.88 1.6659e-14
6217.62 1.6959e-14
6220.36 1.6544e-14
6223.09 1.7049e-14
6225.83 1.7325e-14
6228.57 1.6601e-14
6231.3 1.6188e-14
6234.04 1.6048e-14
6236.78 1.6386e-14
6239.51 1.6731e-14
6242.25 1.665e-14
6244.99 1.6485e-14
6247.72 1.6442e-14
6250.46 1.5387e-14
6253.2 1.537e-14
6255.94 1.6323e-14
6258.67 1.6521e-14
6261.41 1.6641e-14
6264.15 1.6643e-14
6266.88 1.6715e-14
6269.62 1.6915e-14
6272.36 1.5727e-14
6275.09 1.6957e-14
6277.83 1.6186e-14
6280.57 1.747e-14
6283.3 1.6407e-14
6286.04 1.6985e-14
6288.78 1.7137e-14
6291.52 1.7163e-14
6294.25 1.8834e-14
6296.99 2.0183e-14
6299.73 1.9163e-14
6302.46 1.8792e-14
6305.2 1.7797e-14
6307.94 1.7136e-14
6310.67 1.7225e-14
6313.41 1.6087e-14
6316.15 1.7264e-14
6318.89 1.6346e-14
6321.62 1.6789e-14
6324.36 1.6429e-14
6327.1 1.7242e-14
6329.83 1.7019e-14
6332.57 1.6537e-14
6335.31 1.6387e-14
6338.04 1.6766e-14
6340.78 1.6358e-14
6343.52 1.6467e-14
6346.25 1.625e-14
6348.99 1.6108e-14
6351.73 1.6986e-14
6354.47 1.6307e-14
6357.2 1.603e-14
6359.94 1.671e-14
6362.68 1.7538e-14
6365.41 1.7799e-14
6368.15 1.7496e-14
6370.89 1.7342e-14
6373.62 1.7074e-14
6376.36 1.7034e-14
6379.1 1.6359e-14
6381.84 1.6229e-14
6384.57 1.7255e-14
6387.31 1.7088e-14
6390.05 1.6858e-14
6392.78 1.7054e-14
6395.52 1.7294e-14
6398.26 1.6375e-14
6400.99 1.6635e-14
6403.73 1.6474e-14
6406.47 1.6402e-14
6409.2 1.6411e-14
6411.94 1.6666e-14
6414.68 1.6305e-14
6417.42 1.6163e-14
6420.15 1.6749e-14
6422.89 1.6979e-14
6425.63 1.6847e-14
6428.36 1.6001e-14
6431.1 1.6203e-14
6433.84 1.6473e-14
6436.57 1.615e-14
6439.31 1.6061e-14
6442.05 1.6359e-14
6444.78 1.6624e-14
6447.52 1.6725e-14
6450.26 1.6483e-14
6453.0 1.5906e-14
6455.73 1.5906e-14
6458.47 1.6619e-14
6461.21 1.6411e-14
6463.94 1.6862e-14
6466.68 1.6908e-14
6469.42 1.6387e-14
6472.15 1.648e-14
6474.89 1.7004e-14
6477.63 1.6689e-14
6480.37 1.6455e-14
6483.1 1.6656e-14
6485.84 1.6002e-14
6488.58 1.6101e-14
6491.31 1.6143e-14
6494.05 1.5434e-14
6496.79 1.6391e-14
6499.52 1.6749e-14
6502.26 1.7164e-14
6505.0 1.6502e-14
6507.73 1.6922e-14
6510.47 1.7037e-14
6513.21 1.6513e-14
6515.95 1.5716e-14
6518.68 1.6963e-14
6521.42 1.672e-14
6524.16 1.6835e-14
6526.89 1.7101e-14
6529.63 1.7617e-14
6532.37 1.645e-14
6535.1 1.6275e-14
6537.84 1.7563e-14
6540.58 2.1075e-14
6543.31 2.6197e-14
6546.05 3.0731e-14
6548.79 2.7933e-14
6551.53 3.1699e-14
6554.26 5.9363e-14
6557.0 1.2649e-13
6559.74 1.9186e-13
6562.47 1.8558e-13
6565.21 1.1488e-13
6567.95 5.2203e-14
6570.68 2.6579e-14
6573.42 2.2936e-14
6576.16 3.0297e-14
6578.9 4.3766e-14
6581.63 5.0284e-14
6584.37 4.2638e-14
6587.11 2.91e-14
6589.84 1.9783e-14
6592.58 1.5971e-14
6595.32 1.6024e-14
6598.05 1.6589e-14
6600.79 1.6206e-14
6603.53 1.5946e-14
6606.26 1.604e-14
6609.0 1.6584e-14
6611.74 1.569e-14
6614.48 1.5978e-14
6617.21 1.6548e-14
6619.95 1.6437e-14
6622.69 1.6423e-14
6625.42 1.6486e-14
6628.16 1.6268e-14
6630.9 1.6479e-14
6633.63 1.6477e-14
6636.37 1.5878e-14
6639.11 1.6032e-14
6641.85 1.5854e-14
6644.58 1.6457e-14
6647.32 1.6574e-14
6650.06 1.6224e-14
6652.79 1.645e-14
6655.53 1.5327e-14
6658.27 1.5966e-14
6661.0 1.5818e-14
6663.74 1.7076e-14
6666.48 1.7147e-14
6669.21 1.696e-14
6671.95 1.7456e-14
6674.69 1.8039e-14
6677.43 1.8349e-14
6680.16 1.7231e-14
6682.9 1.6526e-14
6685.64 1.6095e-14
6688.37 1.6389e-14
6691.11 1.6509e-14
6693.85 1.6247e-14
6696.58 1.6253e-14
6699.32 1.6346e-14
6702.06 1.5585e-14
6704.79 1.733e-14
6707.53 2.0004e-14
6710.27 2.6134e-14
6713.01 3.2418e-14
6715.74 3.8093e-14
6718.48 3.0608e-14
6721.22 2.2977e-14
6723.95 2.4841e-14
6726.69 3.1182e-14
6729.43 3.4085e-14
6732.16 2.8974e-14
6734.9 2.0742e-14
6737.64 1.7648e-14
6740.38 1.6538e-14
6743.11 1.5511e-14
6745.85 1.6118e-14
6748.59 1.5921e-14
6751.32 1.5472e-14
6754.06 1.6469e-14
6756.8 1.6042e-14
6759.53 1.5117e-14
6762.27 1.6028e-14
6765.01 1.5985e-14
6767.74 1.5688e-14
6770.48 1.5535e-14
6773.22 1.4944e-14
6775.96 1.5364e-14
6778.69 1.5592e-14
6781.43 1.5434e-14
6784.17 1.5524e-14
6786.9 1.4741e-14
6789.64 1.532e-14
6792.38 1.5478e-14
6795.11 1.519e-14
6806.66 1.5807e-14
6822.35 1.5731e-14
6838.07 1.5875e-14
6853.84 1.5836e-14
6869.64 1.5225e-14
6885.47 1.547e-14
6901.35 1.5468e-14
6917.25 1.5537e-14
6933.2 1.5322e-14
6949.19 1.5712e-14
6965.2 1.5602e-14
6981.26 1.5599e-14
6997.35 1.5525e-14
7013.48 1.5274e-14
7029.65 1.5272e-14
7045.85 1.527e-14
7062.1 1.5162e-14
7078.38 1.5265e-14
7094.69 1.4778e-14
7111.05 1.4776e-14
7127.44 1.4672e-14
7143.87 1.4636e-14
7160.34 1.4667e-14
7176.85 1.443e-14
7193.39 1.3372e-14
7209.97 1.4e-14
7226.6 1.4725e-14
7243.25 1.4355e-14
7259.95 1.4123e-14
7276.69 1.4923e-14
7293.46 1.4614e-14
7310.27 1.4578e-14
7327.13 1.4847e-14
7344.02 1.526e-14
7360.95 1.4808e-14
7377.92 1.522e-14
7394.93 1.46e-14
7411.97 1.5285e-14
7429.06 1.4662e-14
7446.19 1.5071e-14
7463.35 1.5243e-14
7480.55 1.4962e-14
7497.8 1.4925e-14
7515.08 1.5061e-14
7532.41 1.4989e-14
7549.77 1.5265e-14
7567.18 1.4984e-14
7584.62 1.5016e-14
7602.1 1.4739e-14
7619.63 1.4468e-14
7637.19 1.4599e-14
7654.8 1.4529e-14
7672.45 1.3589e-14
7690.13 1.4129e-14
7707.86 1.3584e-14
7725.63 1.3834e-14
7743.44 1.4089e-14
7761.29 1.3861e-14
7779.18 1.3543e-14
7797.11 1.3603e-14
7815.09 1.3822e-14
7833.1 1.4076e-14
7851.16 1.4041e-14
7869.26 1.4104e-14
7887.4 1.3844e-14
7905.58 1.3589e-14
7923.81 1.3338e-14
7942.07 1.3305e-14
7960.38 1.355e-14
7978.73 1.3579e-14
7997.12 1.3452e-14
8015.56 1.3605e-14
8034.04 1.3232e-14
8052.56 1.3507e-14
8071.12 1.3755e-14
8089.73 1.3347e-14
8108.37 1.3407e-14
8127.06 1.3466e-14
8145.8 1.3588e-14
8164.58 1.3399e-14
8183.4 1.3646e-14
8202.26 1.2939e-14
8221.17 1.3299e-14
8240.12 1.2155e-14
8259.12 1.3793e-14
8278.16 1.3791e-14
8297.24 1.2721e-14
8316.37 1.2806e-14
8335.54 1.2833e-14
8354.76 1.295e-14
8374.01 1.2918e-14
8393.32 1.265e-14
8412.67 1.3122e-14
8432.06 1.294e-14
8451.5 1.2731e-14
8470.98 1.2905e-14
8490.51 1.2726e-14
8510.08 1.1738e-14
8529.7 1.2662e-14
8549.36 8.9832e-15
8569.07 1.2716e-14
8588.83 1.2861e-14
8608.63 1.2111e-14
8628.47 1.265e-14
8648.36 1.2765e-14
8668.3 1.0397e-14
8688.28 1.199e-14
8708.31 1.2155e-14
8728.38 1.2608e-14
8748.5 1.2404e-14
8768.67 1.2459e-14
8788.89 1.2514e-14
8809.15 1.2657e-14
8829.45 1.248e-14
8849.8 1.225e-14
8870.21 1.1042e-14
8890.66 1.1857e-14
8911.15 1.2103e-14
8931.69 1.21e-14
8952.28 1.1849e-14
8972.92 1.1236e-14
8993.61 1.179e-14
9014.34 1.1309e-14
9035.12 1.0948e-14
9055.95 1.2597e-14
9076.82 1.2055e-14
9097.74 1.0766e-14
9118.72 1.1912e-14
9139.74 1.1115e-14
9160.81 1.1138e-14
9181.92 1.0683e-14
9203.09 1.1445e-14
9224.31 1.108e-14
9245.57 1.1154e-14
9266.89 1.1307e-14
9288.25 1.0821e-14
9309.66 1.0403e-14
9331.12 1.1724e-14
9352.63 1.1667e-14
9374.19 1.1505e-14
9395.8 1.1636e-14
9417.46 1.1394e-14
9439.17 1.163e-14
9460.93 1.1655e-14
9482.74 1.1625e-14
9504.6 1.1411e-14
9526.51 1.1356e-14
9548.47 1.0918e-14
9570.48 1.1299e-14
9592.54 1.1506e-14
9614.65 1.1372e-14
9636.82 1.1396e-14
9659.04 1.1263e-14
9681.3 1.1338e-14
9703.62 1.1206e-14
9725.99 1.1101e-14
9748.41 1.1047e-14
9770.88 1.107e-14
9793.41 1.0941e-14
9815.98 1.1116e-14
9838.61 1.1037e-14
9861.29 1.1035e-14
9884.02 1.0931e-14
9906.81 1.0854e-14
9929.65 1.0901e-14
9952.54 1.0899e-14
9975.48 1.0896e-14
9998.47 1.0819e-14
10021.52 1.0692e-14
10067.78 1.0516e-14
10114.25 1.0682e-14
10184.37 1.0577e-14
10231.37 1.0572e-14
10278.59 1.0543e-14
10302.29 1.0468e-14
10493.82 1.0093e-14
10688.92 9.6457e-15
10887.64 9.2116e-15
11090.05 8.858e-15
11296.23 8.6165e-15
11506.25 8.5179e-15
11693.22 8.2667e-15
11910.61 7.9677e-15
12104.14 7.7684e-15
12300.81 7.6091e-15
12500.68 7.3847e-15
12703.8 7.2e-15
12910.22 7.0038e-15
13089.82 6.8601e-15
13302.51 6.6578e-15
13487.57 6.5213e-15
13706.73 6.3728e-15
13897.41 6.1565e-15
14090.74 5.9202e-15
14286.76 5.7987e-15
14485.51 5.7854e-15
14687.03 5.6019e-15
14891.35 5.6277e-15
15098.51 5.6148e-15
15308.53 5.6537e-15
15485.8 5.6019e-15
15701.23 5.487e-15
15883.05 5.2885e-15
16104.0 5.2885e-15
16290.48 5.2521e-15
16517.09 5.1444e-15
16708.35 5.0855e-15
16901.83 4.9697e-15
17097.55 4.8566e-15
17295.52 4.6594e-15
17495.79 4.5325e-15
17698.39 4.3585e-15
17903.33 4.2105e-15
18110.65 4.021e-15
18320.35 3.9114e-15
18489.87 3.7873e-15
18703.98 3.6169e-15
18920.54 3.5183e-15
19095.62 3.4541e-15
19316.74 3.3368e-15
19495.46 3.2087e-15
19721.22 3.1069e-15
19903.7 3.0153e-15
20087.86 2.9603e-15
20320.47 2.8532e-15
20508.5 2.8076e-15
20698.25 2.7311e-15
20889.78 2.6628e-15
21083.08 2.6082e-15
21278.14 2.5488e-15
21524.54 2.4908e-15
21723.71 2.4007e-15
21924.7 2.3623e-15
22076.69 2.2926e-15
22280.95 2.2301e-15
22487.12 2.1744e-15
22695.18 2.1151e-15
22905.18 1.9058e-15
23117.13 1.8768e-15
23277.36 1.6429e-15
23492.75 1.5375e-15
23710.11 1.5415e-15
23874.48 1.4125e-15
24095.37 1.3552e-15
24318.33 1.3334e-15
24486.89 1.2384e-15
24713.47 1.2124e-15
24884.76 1.0434e-15
25115.03 1.0236e-15
25289.14 1.0228e-15
25523.12 1.003e-15
25526.56 9.39e-16
25622.8 9.4446e-16
25719.15 9.8664e-16
25815.38 9.6623e-16
25911.73 9.6379e-16
26008.07 9.647e-16
26104.31 1.0689e-15
26200.65 9.9675e-16
26296.99 9.9914e-16
26393.23 9.1057e-16
26489.57 9.6712e-16
26585.81 9.5185e-16
26682.15 1.002e-15
26778.49 8.8549e-16
26874.73 8.8309e-16
26971.07 8.2918e-16
27067.42 9.1149e-16
27163.66 8.0897e-16
27260.0 8.656e-16
27356.24 7.5509e-16
27452.58 7.6276e-16
27548.92 7.7401e-16
27645.16 7.4877e-16
27741.5 7.8791e-16
27837.84 7.7574e-16
27934.08 8.438e-16
28030.42 8.4464e-16
28126.66 8.062e-16
28223.01 7.8758e-16
28319.34 8.0768e-16
28415.59 8.2444e-16
28511.93 8.1723e-16
28608.27 7.7843e-16
28704.51 7.2253e-16
28800.85 7.142e-16
28897.09 7.4014e-16
28993.43 7.4914e-16
29089.77 7.2325e-16
29186.01 7.4227e-16
29282.35 7.3494e-16
29378.69 7.4165e-16
29474.93 7.465e-16
29571.28 7.8491e-16
29667.52 7.3918e-16
29763.86 6.9573e-16
29860.2 6.5442e-16
29956.44 6.5536e-16
30052.78 5.9805e-16
30149.12 6.1955e-16
30245.36 6.2171e-16
30341.7 6.2262e-16
30437.94 5.8943e-16
30534.28 5.61e-16
30630.62 5.7806e-16
30726.86 5.6919e-16
30823.2 6.0875e-16
30919.54 5.6087e-16
31015.78 6.3427e-16
31112.13 6.6839e-16
31208.37 7.0204e-16
31304.71 6.4615e-16
31401.05 6.2291e-16
31497.29 6.4983e-16
31593.63 6.3175e-16
31689.97 6.3339e-16
31786.21 6.3152e-16
31882.55 6.1347e-16
31978.79 6.1598e-16
32075.13 6.5302e-16
32171.47 6.9437e-16
32267.72 7.1267e-16
32364.06 6.7377e-16
32460.4 6.0853e-16
32556.64 5.8097e-16
32652.98 7.1001e-16
32749.22 8.6564e-16
32845.56 9.6589e-16
32941.9 1.1077e-15
33038.14 1.1594e-15
33134.48 1.1208e-15
33230.82 8.9565e-16
33327.06 7.7842e-16
33423.4 6.7166e-16
33519.64 6.1809e-16
33615.99 5.1268e-16
33712.33 5.0254e-16
33808.57 5.409e-16
33904.91 5.4464e-16
34001.25 6.2738e-16
34097.49 6.6666e-16
34193.83 7.0582e-16
34290.07 6.4794e-16
34386.41 6.0041e-16
34482.75 5.9136e-16
34578.99 6.371e-16
34675.33 5.8228e-16
34771.67 6.0534e-16
34867.91 5.9339e-16
34964.26 5.9986e-16
35060.5 6.0749e-16
35156.84 4.8458e-16
35253.18 4.4702e-16
35349.42 4.0074e-16
35445.76 4.5369e-16
35542.1 4.6191e-16
35638.34 4.5486e-16
35734.68 4.8601e-16
35830.92 4.6156e-16
35927.26 4.7344e-16
36023.6 4.6417e-16
36119.85 4.5525e-16
36216.18 4.6815e-16
36312.52 4.0501e-16
36408.77 4.3082e-16
36505.11 3.6246e-16
36601.35 3.467e-16
36697.69 3.3232e-16
36794.03 3.9332e-16
36890.27 4.4342e-16
36986.61 4.483e-16
37082.95 3.5951e-16
37179.19 3.4719e-16
37275.53 3.2809e-16
37371.77 3.9297e-16
37468.12 3.8801e-16
37564.45 3.8807e-16
37660.7 3.3597e-16
37757.04 3.6831e-16
37853.38 3.6323e-16
37949.62 3.8323e-16
38045.96 3.7494e-16
38142.2 3.5102e-16
38238.54 3.7124e-16
38334.88 3.6133e-16
38431.12 3.8536e-16
38527.46 3.5954e-16
38623.8 3.2916e-16
38720.04 3.2686e-16
38816.38 2.5622e-16
38912.62 3.3365e-16
39008.97 3.1266e-16
39105.31 3.0933e-16
39201.55 3.2832e-16
39297.89 3.2265e-16
39394.23 3.2434e-16
39490.47 3.058e-16
39586.81 3.626e-16
39683.05 3.5983e-16
39779.39 3.7062e-16
39875.73 3.4912e-16
39971.98 3.7352e-16
40068.31 3.9334e-16
40164.66 3.545e-16
40260.89 3.2593e-16
40357.24 3.2277e-16
40453.48 4.6059e-16
40549.82 6.5089e-16
40646.16 6.3325e-16
40742.4 5.076e-16
40838.74 3.4356e-16
40935.08 2.9238e-16
41031.33 3.3024e-16
41127.66 3.6204e-16
41223.9 3.5121e-16
41320.24 3.3377e-16
41416.58 3.2891e-16
41512.83 3.0998e-16
41609.16 3.3794e-16
41705.51 3.6839e-16
41801.75 3.7499e-16
41898.09 2.5851e-16
41994.33 2.5891e-16
42090.67 2.3608e-16
42187.01 2.505e-16
42283.25 2.4575e-16
42379.59 2.3009e-16
42475.93 1.8979e-16
42572.18 2.5259e-16
42668.51 2.6991e-16
42764.76 2.6241e-16
42861.1 2.6313e-16
42957.43 2.5136e-16
43053.68 2.9982e-16
43150.01 3.2221e-16
43246.36 3.1329e-16
43342.6 3.3997e-16
43438.94 3.577e-16
43535.18 3.2135e-16
43631.52 2.7402e-16
43727.86 3.3599e-16
43824.1 3.2417e-16
43920.45 3.4685e-16
44016.78 3.3672e-16
44113.03 3.4176e-16
44209.36 2.9526e-16
44305.61 2.8627e-16
44401.95 2.7894e-16
44498.28 3.0532e-16
44594.53 2.8755e-16
44690.87 2.7543e-16
44787.21 2.3947e-16
44883.45 2.9665e-16
44979.79 2.2849e-16
45076.03 2.5895e-16
45172.37 2.1234e-16
45268.72 2.4585e-16
45364.95 2.3071e-16
45461.3 2.8561e-16
45557.63 2.6925e-16
45653.88 2.5956e-16
45750.22 2.6125e-16
45846.46 2.6001e-16
45942.8 2.7934e-16
46039.14 2.5357e-16
46135.38 2.1612e-16
46231.72 2.2702e-16
46328.06 2.1609e-16
46424.3 2.9366e-16
46520.64 3.1713e-16
46616.88 3.1346e-16
46713.22 2.7761e-16
46809.57 2.4429e-16
46905.81 2.1718e-16
47002.15 2.3265e-16
47098.48 2.5407e-16
47194.73 2.3076e-16
47291.07 1.2795e-16
47387.31 1.7091e-16
47483.65 1.4503e-16
47579.99 2.345e-16
47676.23 2.5592e-16
47772.57 2.6366e-16
47868.91 2.0785e-16
47965.15 2.2564e-16
48061.49 2.2955e-16
48157.73 2.6664e-16
48254.08 2.2139e-16
48350.42 2.5437e-16
48446.66 2.6732e-16
48543.0 2.8881e-16
48639.34 2.533e-16
48735.58 3.1096e-16
48831.92 2.4406e-16
48928.16 2.8578e-16
49024.5 2.7348e-16
49120.84 3.0541e-16
49218.08 2.4148e-16
49710.26 2.4176e-16
50207.36 2.4203e-16
50709.44 2.4231e-16
51216.53 2.426e-16
51728.7 2.4289e-16
52245.98 2.4318e-16
52768.44 2.4347e-16
53296.13 2.4376e-16
53829.09 2.4406e-16
54367.38 2.4436e-16
54911.05 2.4467e-16
55263.15 2.4487e-16
55571.54 2.4599e-16
55879.92 2.5846e-16
56188.31 1.8812e-16
56496.68 1.8792e-16
56805.08 1.8158e-16
57113.46 2.9544e-16
57421.83 3.1691e-16
57730.21 4.2278e-16
58038.6 3.0632e-16
58346.99 2.7942e-16
58655.37 2.603e-16
58963.75 2.615e-16
59272.14 2.6252e-16
59580.52 3.6672e-16
59888.9 3.9342e-16
60197.29 4.2675e-16
60505.67 4.3974e-16
60814.05 4.5163e-16
61122.44 5.3769e-16
61430.82 8.2216e-16
61739.19 1.1655e-15
62047.58 1.335e-15
62355.96 1.2766e-15
62664.35 1.0232e-15
62972.73 8.833e-16
63281.11 6.9992e-16
63589.5 5.5395e-16
63897.88 5.5403e-16
64206.26 5.3808e-16
64514.65 4.3833e-16
64823.03 3.9867e-16
65131.41 4.0452e-16
65439.8 3.7942e-16
65748.17 4.0488e-16
66056.55 4.0469e-16
66364.95 3.9165e-16
66673.32 2.6596e-16
66981.7 3.5472e-16
67290.09 4.114e-16
67598.47 4.7227e-16
67906.86 5.022e-16
68215.24 5.7033e-16
68523.62 4.132e-16
68832.01 4.243e-16
69140.39 3.489e-16
69448.78 3.9805e-16
69757.16 5.9954e-16
70065.54 6.5721e-16
70373.93 4.4052e-16
70682.31 4.4161e-16
70990.69 4.2686e-16
71299.08 5.408e-16
71607.45 5.2332e-16
71915.85 5.7946e-16
72224.22 6.2152e-16
72532.6 6.6891e-16
72841.0 6.4548e-16
73149.37 7.5805e-16
73457.75 7.361e-16
73766.14 7.6842e-16
74074.52 9.0584e-16
74382.9 1.0007e-15
74691.28 1.1371e-15
74979.49 1.0592e-15
74999.67 1.0496e-15
75308.06 1.2087e-15
75597.47 1.3754e-15
75616.43 1.4282e-15
76215.47 1.2456e-15
76833.46 1.2467e-15
77451.45 1.1631e-15
78069.44 1.1111e-15
78687.45 9.1884e-16
79305.44 8.5393e-16
79923.43 7.7851e-16
80541.44 7.2095e-16
81159.43 5.6247e-16
81777.42 5.1142e-16
82395.42 4.8585e-16
83013.41 5.0822e-16
83631.41 5.3575e-16
84249.4 5.6783e-16
84867.4 5.9607e-16
85485.39 6.5995e-16
86103.4 6.8879e-16
86721.38 6.1207e-16
87339.38 5.4425e-16
87957.38 4.1155e-16
88575.37 3.0207e-16
89193.36 2.932e-16
89811.35 3.6356e-16
90429.34 2.9098e-16
91047.35 2.4909e-16
91665.34 2.3785e-16
92283.34 2.3226e-16
92901.34 1.7506e-16
93519.33 2.144e-16
94137.32 2.0214e-16
94755.31 1.9677e-16
95373.31 2.0414e-16
95991.3 2.1433e-16
96609.29 2.0903e-16
97227.3 1.9628e-16
97845.3 1.7519e-16
98463.29 1.7414e-16
99081.29 1.7848e-16
99699.24 1.7479e-16
100317.28 1.9947e-16
100935.23 1.9812e-16
101553.29 1.8378e-16
102171.25 2.043e-16
102789.29 1.8633e-16
103407.26 1.9514e-16
104025.21 2.2703e-16
104643.25 2.8382e-16
105261.2 3.3214e-16
105879.26 2.5201e-16
106497.22 2.5364e-16
107115.17 2.5748e-16
107733.22 2.4716e-16
108351.18 2.6134e-16
108969.22 2.7166e-16
109587.18 3.3475e-16
110205.23 3.9457e-16
110823.19 4.2528e-16
111441.14 6.0428e-16
112059.19 8.5633e-16
112677.14 8.8254e-16
113295.2 7.2434e-16
113913.15 5.7706e-16
114531.2 4.6616e-16
115149.15 4.1545e-16
115767.1 3.7212e-16
116385.16 3.3615e-16
117003.11 3.2121e-16
117621.16 3.267e-16
118239.11 3.3517e-16
118857.17 3.4404e-16
119475.12 3.5821e-16
120093.07 3.7258e-16
120711.13 3.5173e-16
121329.08 3.1408e-16
121947.13 3.3197e-16
122565.08 3.5832e-16
123183.05 3.709e-16
123801.09 3.6283e-16
124419.04 3.921e-16
125037.1 4.0844e-16
125655.06 4.2153e-16
126273.1 4.4359e-16
126891.06 4.7067e-16
127509.01 5.6794e-16
128127.06 7.951e-16
128745.02 5.5847e-16
129363.07 3.3769e-16
129981.02 3.0964e-16
130598.97 2.9594e-16
131217.02 2.9885e-16
131834.98 2.9742e-16
132453.03 2.818e-16
133070.98 2.8444e-16
133689.03 2.9527e-16
134306.99 2.7835e-16
134924.95 2.8855e-16
135543.0 2.9766e-16
136160.95 2.8629e-16
136779.0 2.8936e-16
137396.96 2.9296e-16
138015.01 2.9391e-16
138632.95 2.8385e-16
139250.91 2.8309e-16
139868.96 2.8481e-16
140486.92 3.0155e-16
141104.96 2.8158e-16
141722.92 2.9823e-16
142340.97 2.9602e-16
142958.93 2.622e-16
143576.88 2.7691e-16
144194.94 2.7093e-16
144726.7 2.816e-16
145639.24 2.8875e-16
146551.89 2.787e-16
147464.45 2.8017e-16
148376.98 2.8293e-16
149289.54 2.8543e-16
150202.19 2.7993e-16
151114.74 2.8575e-16
152027.28 2.9394e-16
152939.93 2.9775e-16
153852.48 3.1022e-16
154765.02 4.4985e-16
155677.57 5.6717e-16
156590.22 4.0686e-16
157502.78 3.2337e-16
158415.31 3.2843e-16
159327.96 3.3176e-16
160240.52 3.4006e-16
161153.05 3.3441e-16
162065.7 3.5172e-16
162978.26 3.7456e-16
163890.8 4.217e-16
164803.35 4.301e-16
165716.01 4.0776e-16
166628.54 4.0672e-16
167541.09 4.0646e-16
168453.64 4.107e-16
169366.29 4.2314e-16
170278.85 4.546e-16
171191.4 4.4552e-16
172104.05 4.3386e-16
173016.59 4.4443e-16
173929.14 4.4284e-16
174841.79 4.1649e-16
175754.33 4.1896e-16
176666.88 4.2211e-16
177579.42 4.2623e-16
178492.07 4.349e-16
179404.62 4.2967e-16
180317.16 4.2059e-16
181229.81 4.1926e-16
182142.36 4.254e-16
183054.9 4.3103e-16
183967.55 4.3506e-16
184880.1 4.4171e-16
185792.66 4.8333e-16
186705.2 7.3212e-16
187617.84 7.5752e-16
188530.4 5.0568e-16
189442.94 4.601e-16
190355.6 4.6207e-16
191268.15 4.6119e-16
192180.68 4.6137e-16
193093.23 4.5505e-16
194005.9 4.5453e-16
194918.43 4.6015e-16
195830.99 4.6409e-16
196743.64 4.6659e-16
197656.17 4.5485e-16
198568.73 4.547e-16
199481.28 4.6707e-16
200393.93 4.6072e-16
201306.47 4.6246e-16
202219.02 4.6529e-16
203131.67 4.558e-16
204226.54 4.3081e-16
205983.48 4.688e-16
207741.48 4.5435e-16
209500.39 4.3957e-16
211260.39 4.6325e-16
213021.4 4.5586e-16
214783.49 4.337e-16
216546.48 4.5171e-16
218310.56 4.5357e-16
220075.66 4.473e-16
221841.83 4.3346e-16
223609.01 4.5651e-16
225377.18 4.6649e-16
227146.43 4.6285e-16
228916.69 4.6119e-16
230687.94 4.7183e-16
232460.29 4.6684e-16
234233.64 4.7355e-16
236008.07 4.5913e-16
237783.6 4.5448e-16
239560.13 4.6089e-16
241337.65 4.6419e-16
243116.28 4.6567e-16
244895.89 4.6977e-16
246676.71 4.6732e-16
248458.41 4.5418e-16
250241.19 4.6248e-16
252025.09 4.5359e-16
253810.08 4.4901e-16
255596.06 4.5831e-16
257383.13 4.3443e-16
259171.31 4.7189e-16
260960.57 4.6438e-16
262750.85 4.5184e-16
264542.18 4.5512e-16
266334.66 4.5877e-16
268128.08 4.5782e-16
269922.74 4.6125e-16
271718.36 4.6239e-16
273515.11 4.595e-16
275312.94 4.5847e-16
277111.86 4.5868e-16
278911.87 4.6369e-16
280712.97 4.6731e-16
282515.19 4.6679e-16
284318.49 4.6052e-16
286122.89 4.564e-16
287928.37 4.5811e-16
289734.94 4.7039e-16
291542.63 4.6223e-16
293351.41 4.5623e-16
295161.28 4.609e-16
296972.33 4.6026e-16
298784.5 4.5809e-16
300597.64 4.5706e-16
302411.98 4.6354e-16
304227.42 4.6611e-16
306044.07 4.7347e-16
307861.71 4.5773e-16
309680.54 4.6734e-16
311500.55 4.582e-16
313321.58 4.5868e-16
315143.8 4.6323e-16
316967.16 4.6784e-16
318791.56 4.6813e-16
320617.16 4.6423e-16
322443.98 4.6168e-16
324271.83 4.6416e-16
326100.79 4.7244e-16
327931.0 4.7498e-16
329762.36 4.7828e-16
331594.81 4.9665e-16
333428.38 5.8342e-16
335263.13 7.0886e-16
337099.09 5.4321e-16
338936.21 4.9589e-16
340774.44 4.5027e-16
342613.79 4.6864e-16
344454.39 4.9488e-16
346296.14 5.2298e-16
348139.04 6.2635e-16
