# col1 col2
# An Atlas of Galaxy Spectral Energy Distributions from the Ultraviolet to the Mid-Infrared
# Brown et al. (2014)
# http://dx.doi.org/10.5072/03/529D3551F0117
# 
# Column 1 : Restframe Wavelength (Angstrom)
# Column 2 : Flux per unit wavelength (ergs/s/cm^2/Angstrom)
# Column 3 : Observed wavelength (Angstrom)
# Column 4 : Source (0 = model, 1 = Optical Spectrum, 2 = Akari, 3 = Spitzer IRS)
# 
100.03 6.0919e-38
101.89 7.634e-38
104.02 8.8054e-38
105.96 1.0345e-37
107.93 1.2438e-37
109.93 1.674e-37
114.06 2.1765e-37
118.07 2.69e-37
121.09 8.5065e-37
125.06 9.9026e-37
127.09 1.0441e-36
127.98 1.0883e-36
130.96 1.1555e-36
131.86 1.3266e-36
134.01 1.3764e-36
137.13 1.6663e-36
140.0 1.7896e-36
142.93 4.2929e-36
146.94 9.3919e-36
151.05 1.6284e-35
154.93 5.233e-35
158.9 2.0312e-34
161.85 5.6853e-34
166.01 2.1715e-33
169.87 7.7224e-33
173.03 1.6321e-32
177.06 6.1341e-32
179.94 1.4117e-31
182.02 2.4141e-31
185.83 6.7881e-31
191.04 2.3054e-30
194.14 4.6639e-30
198.21 1.137e-29
201.9 2.6838e-29
205.18 4.9631e-29
209.95 1.2816e-28
215.84 4.0064e-28
219.85 8.105e-28
222.91 1.3297e-27
227.05 2.5927e-27
230.21 1.011e-23
233.95 1.6895e-23
239.95 2.4817e-23
246.11 3.0113e-23
251.84 3.8793e-23
257.11 3.9423e-23
260.09 4.8837e-23
263.71 5.7776e-23
269.23 6.6642e-23
274.24 7.758e-23
278.69 9.0313e-23
283.87 1.0783e-22
289.82 1.2582e-22
295.89 1.5408e-22
300.69 1.802e-22
307.7 2.37e-22
317.78 3.5217e-22
328.19 5.4419e-22
338.16 8.4091e-22
347.64 1.3054e-21
357.38 2.7274e-21
365.7 6.1766e-21
375.08 9.2417e-21
384.7 1.2409e-20
394.57 2.8691e-20
404.69 5.2572e-20
414.12 7.5814e-20
421.82 9.4352e-20
429.66 1.2267e-19
440.68 2.0642e-19
450.95 2.8824e-19
460.39 3.3787e-19
470.03 4.6747e-19
479.87 6.9463e-19
489.92 7.8118e-19
500.18 1.2239e-18
505.97 1.7529e-18
511.83 7.758e-18
520.15 8.5458e-18
529.82 9.4788e-18
539.67 9.2204e-18
549.7 1.4215e-17
559.92 1.8696e-17
570.33 2.2896e-17
579.6 2.3001e-17
590.37 2.9631e-17
599.97 3.0743e-17
609.71 3.7132e-17
619.62 4.5999e-17
629.69 5.0437e-17
639.92 5.4923e-17
650.32 6.2625e-17
657.85 6.6489e-17
665.47 7.4602e-17
674.72 7.9938e-17
685.69 7.7759e-17
695.23 1.0345e-16
704.9 9.5225e-17
716.35 1.2495e-16
726.32 1.342e-16
734.73 1.4281e-16
744.95 1.5767e-16
755.31 1.7012e-16
765.82 1.7368e-16
774.69 1.9941e-16
785.46 2.0642e-16
794.56 2.2738e-16
805.61 2.4364e-16
814.94 2.5748e-16
824.38 2.8233e-16
835.85 2.3054e-16
845.52 3.0532e-16
855.31 3.1605e-16
865.22 3.4574e-16
875.24 3.6962e-16
885.37 3.9788e-16
895.62 4.2145e-16
906.0 4.2634e-16
914.38 5.4923e-16
924.97 2.9427e-15
935.68 6.2338e-15
944.33 1.1635e-14
955.27 1.6548e-14
964.11 1.7937e-14
975.27 2.9974e-15
984.3 1.3924e-14
995.69 1.5302e-14
1004.91 2.3321e-14
1014.21 2.2843e-14
1025.95 1.0345e-14
1035.44 1.5479e-14
1045.02 3.0391e-14
1054.69 2.9563e-14
1064.45 2.2529e-14
1074.3 2.7211e-14
1084.24 2.0881e-14
1094.27 2.856e-14
1104.4 2.7024e-14
1114.62 2.5454e-14
1124.93 2.2323e-14
1135.34 2.936e-14
1145.84 2.647e-14
1153.79 2.8168e-14
1164.46 2.8758e-14
1175.24 1.8869e-14
1186.11 2.7909e-14
1194.33 1.9044e-14
1205.39 1.3389e-14
1213.74 1.004e-14
1224.97 1.9487e-14
1236.31 2.9158e-14
1244.88 3.1315e-14
1256.39 2.9427e-14
1265.1 2.5512e-14
1273.87 3.2341e-14
1285.66 3.34e-14
1294.57 2.5337e-14
1303.54 2.563e-14
1315.61 3.2192e-14
1324.73 3.0182e-14
1333.91 2.647e-14
1346.25 3.1605e-14
1355.58 3.0532e-14
1364.98 2.6962e-14
1374.44 2.7974e-14
1383.97 2.8168e-14
1393.56 2.3161e-14
1406.46 2.3975e-14
1416.2 2.5571e-14
1426.02 2.6047e-14
1435.91 2.6227e-14
1442.53 2.74e-14
1445.86 2.7527e-14
1455.88 2.6592e-14
1465.97 2.442e-14
1476.13 2.459e-14
1486.37 2.4874e-14
1496.67 2.4989e-14
1503.58 2.3268e-14
1510.52 2.0595e-14
1517.49 2.2017e-14
1524.49 2.1615e-14
1535.06 1.844e-14
1545.7 1.922e-14
1556.42 1.8482e-14
1563.6 1.9398e-14
1574.44 2.0595e-14
1585.35 2.1466e-14
1596.34 2.1615e-14
1603.71 2.1367e-14
1614.83 2.1417e-14
1626.02 2.0453e-14
1633.53 2.1765e-14
1644.85 2.1915e-14
1656.25 2.0642e-14
1663.9 2.2118e-14
1671.58 2.0265e-14
1675.43 2.2272e-14
1683.16 2.2843e-14
1694.83 2.1515e-14
1706.58 2.069e-14
1714.45 1.9309e-14
1726.34 1.9132e-14
1734.31 2.0359e-14
1746.33 1.985e-14
1754.39 2.0833e-14
1766.55 1.9487e-14
1774.7 1.9353e-14
1787.01 1.985e-14
1795.25 2.0785e-14
1803.54 2.0833e-14
1816.04 1.8826e-14
1824.43 1.9487e-14
1837.07 1.8739e-14
1845.55 1.7209e-14
1854.07 1.7012e-14
1866.92 1.7448e-14
1875.54 1.9e-14
1884.2 1.7169e-14
1892.89 1.6246e-14
1906.01 1.761e-14
1914.81 1.6548e-14
1923.65 1.6097e-14
1936.98 1.7051e-14
1945.92 1.7408e-14
1954.91 1.595e-14
1968.46 1.7569e-14
1977.54 1.8145e-14
1982.1 1.7012e-14
1995.84 1.6548e-14
2005.05 1.7248e-14
2014.31 1.6663e-14
2023.61 1.7569e-14
2032.95 1.6209e-14
2047.04 1.6701e-14
2056.49 1.5551e-14
2065.98 1.5876e-14
2075.52 1.713e-14
2080.3 1.5803e-14
2085.09 1.6548e-14
2094.72 1.5623e-14
2104.39 1.595e-14
2114.1 1.6097e-14
2123.86 1.6246e-14
2133.66 1.5515e-14
2143.51 1.5337e-14
2153.41 1.595e-14
2163.35 1.5623e-14
2173.33 1.5479e-14
2183.36 1.4988e-14
2193.44 1.5551e-14
2203.57 1.5232e-14
2213.74 1.4715e-14
2223.95 1.4248e-14
2234.22 1.4715e-14
2244.53 1.4347e-14
2254.89 1.386e-14
2265.3 1.4182e-14
2275.76 1.4313e-14
2286.26 1.4411e-14
2296.81 1.3605e-14
2307.42 1.3667e-14
2312.74 1.3112e-14
2323.41 1.0756e-14
2334.13 1.2463e-14
2344.91 1.2405e-14
2355.73 1.2694e-14
2366.61 1.2206e-14
2377.53 1.2205e-14
2383.01 1.1764e-14
2394.01 1.2205e-14
2405.06 1.179e-14
2416.16 1.1898e-14
2427.31 1.2119e-14
2432.91 1.168e-14
2444.14 1.2063e-14
2455.42 1.1897e-14
2466.76 1.1814e-14
2472.44 1.1492e-14
2483.85 1.1705e-14
2495.32 1.0504e-14
2506.84 1.165e-14
2512.62 1.0923e-14
2518.41 1.1384e-14
2524.21 1.1023e-14
2535.86 1.1048e-14
2547.57 1.0746e-14
2553.44 1.1073e-14
2565.23 1.092e-14
2577.07 1.1252e-14
2583.01 1.1123e-14
2594.93 1.1045e-14
2606.91 1.0794e-14
2612.92 1.067e-14
2624.98 1.0768e-14
2637.1 1.0767e-14
2643.18 1.1043e-14
2655.38 1.0992e-14
2667.63 1.0449e-14
2673.78 1.0667e-14
2686.12 1.0569e-14
2692.32 1.0281e-14
2704.74 1.028e-14
2717.23 1.0092e-14
2723.49 1.0092e-14
2736.06 1.0232e-14
2742.37 9.6369e-15
2755.03 9.6142e-15
2767.74 9.7027e-15
2774.12 9.9056e-15
2786.93 9.7918e-15
2793.35 8.9094e-15
2806.25 9.2433e-15
2812.72 9.7234e-15
2825.7 9.6782e-15
2832.21 9.2637e-15
2845.29 9.2207e-15
2851.85 9.1781e-15
2865.01 9.3482e-15
2878.23 9.1983e-15
2884.87 9.1769e-15
2898.18 9.0714e-15
2911.56 9.1759e-15
2931.74 9.0078e-15
2952.06 8.8223e-15
2972.53 8.7609e-15
2993.13 8.64e-15
3006.95 8.5406e-15
3027.79 8.4811e-15
3048.78 8.3449e-15
3069.91 8.2297e-15
3091.19 8.1161e-15
3112.62 8.0041e-15
3126.99 7.8575e-15
3148.66 7.8028e-15
3170.49 7.6421e-15
3192.46 7.4503e-15
3207.2 7.4328e-15
3229.43 7.3133e-15
3251.82 7.2623e-15
3266.83 7.1623e-15
3289.47 7.0797e-15
3312.27 6.998e-15
3319.91 7.1773e-15
3327.56 7.2102e-15
3335.23 7.1439e-15
3342.92 6.8222e-15
3350.63 7.127e-15
3358.35 6.6206e-15
3366.09 6.8215e-15
3373.85 6.7123e-15
3381.63 6.6659e-15
3389.43 6.9158e-15
3397.24 6.9156e-15
3405.07 6.589e-15
3412.92 6.6192e-15
3420.79 6.711e-15
3428.67 6.7108e-15
3436.58 6.7261e-15
3444.5 6.5275e-15
3452.44 6.7257e-15
3460.4 6.408e-15
3468.38 6.3931e-15
3476.37 6.3343e-15
3484.38 6.2905e-15
3492.42 6.4516e-15
3500.47 6.3629e-15
3508.54 6.1609e-15
3516.62 6.1183e-15
3524.73 6.2462e-15
3532.86 6.2173e-15
3541.0 6.2746e-15
3549.16 6.3325e-15
3557.34 6.231e-15
3565.54 6.2885e-15
3573.77 6.1735e-15
3582.0 5.8955e-15
3590.26 5.7478e-15
3598.54 5.8951e-15
3606.83 5.9085e-15
3613.66 6.3862e-15
3616.37 6.6967e-15
3619.07 6.0581e-15
3621.77 6.1695e-15
3624.47 6.9051e-15
3627.17 6.9399e-15
3629.87 6.3013e-15
3632.57 6.1977e-15
3635.27 5.6884e-15
3637.97 5.8131e-15
3640.67 5.9468e-15
3643.37 6.1934e-15
3646.07 5.941e-15
3648.77 5.2097e-15
3651.47 5.8519e-15
3654.17 5.5186e-15
3656.87 5.1411e-15
3659.57 5.3914e-15
3662.28 5.0068e-15
3664.98 4.9854e-15
3667.68 5.3577e-15
3670.38 5.5323e-15
3673.08 4.9235e-15
3675.78 5.5437e-15
3678.48 5.6196e-15
3681.18 5.7605e-15
3683.88 5.3081e-15
3686.58 5.0589e-15
3689.28 5.6682e-15
3691.98 5.9607e-15
3694.68 5.1539e-15
3697.38 5.8563e-15
3700.08 5.2539e-15
3702.78 5.3179e-15
3705.48 5.3598e-15
3708.19 5.7991e-15
3710.89 6.9898e-15
3713.59 6.0686e-15
3716.29 7.899e-15
3718.99 1.5536e-14
3721.69 3.1974e-14
3724.39 5.4656e-14
3727.09 6.5802e-14
3729.79 5.5865e-14
3732.49 3.476e-14
3735.19 1.7299e-14
3737.89 8.9699e-15
3740.59 7.7232e-15
3743.29 6.9294e-15
3745.99 6.6014e-15
3748.69 6.1299e-15
3751.39 6.1389e-15
3754.1 5.4364e-15
3756.8 5.5906e-15
3759.5 5.6084e-15
3762.2 5.7273e-15
3764.9 5.6003e-15
3767.6 5.9537e-15
3770.3 5.6305e-15
3773.0 6.4133e-15
3775.7 6.0222e-15
3778.4 5.3547e-15
3781.1 6.0472e-15
3783.8 6.0575e-15
3786.5 5.6697e-15
3789.2 5.4228e-15
3791.9 6.2937e-15
3794.6 5.6986e-15
3797.3 6.3132e-15
3800.01 6.6855e-15
3802.71 6.4164e-15
3805.41 5.9543e-15
3808.11 6.1441e-15
3810.81 6.2646e-15
3813.51 5.8293e-15
3816.21 5.8045e-15
3818.91 6.0734e-15
3821.61 5.8427e-15
3824.31 5.9112e-15
3827.01 6.1244e-15
3829.71 6.2321e-15
3832.41 5.9254e-15
3835.11 7.0817e-15
3837.81 6.5004e-15
3840.51 5.9973e-15
3843.21 5.8645e-15
3845.92 6.0828e-15
3848.62 6.4603e-15
3851.32 6.4685e-15
3854.02 6.2283e-15
3856.72 6.1578e-15
3859.42 6.6649e-15
3862.12 8.556e-15
3864.82 1.2989e-14
3867.52 1.5213e-14
3870.22 1.5527e-14
3872.92 1.1188e-14
3875.62 7.2319e-15
3878.32 6.1225e-15
3881.02 6.4458e-15
3883.72 7.9563e-15
3886.42 9.367e-15
3889.12 9.905e-15
3891.83 8.158e-15
3894.53 6.5928e-15
3897.23 5.8323e-15
3899.93 5.8893e-15
3902.63 5.5301e-15
3905.33 5.6206e-15
3908.03 5.778e-15
3910.73 5.7698e-15
3913.43 5.6302e-15
3916.13 6.346e-15
3918.83 6.1688e-15
3921.53 5.4954e-15
3924.23 6.221e-15
3926.93 5.5554e-15
3929.63 5.551e-15
3932.33 5.1395e-15
3935.03 5.2589e-15
3937.74 5.6154e-15
3940.44 5.9632e-15
3943.14 5.9752e-15
3945.84 5.809e-15
3948.54 5.8338e-15
3951.24 6.0401e-15
3953.94 5.5968e-15
3956.64 6.34e-15
3959.34 5.8052e-15
3962.04 7.5424e-15
3964.74 1.0045e-14
3967.44 1.2265e-14
3970.14 1.1672e-14
3972.84 9.334e-15
3975.54 6.9912e-15
3978.24 5.6913e-15
3980.94 5.9852e-15
3983.65 5.3871e-15
3986.35 6.1992e-15
3989.05 6.0199e-15
3991.75 6.2027e-15
3994.45 5.7394e-15
3997.15 5.8464e-15
3999.85 5.6507e-15
4002.55 6.0099e-15
4005.25 5.9139e-15
4007.95 6.2804e-15
4010.65 5.7177e-15
4013.35 5.3998e-15
4016.05 5.7918e-15
4018.75 5.7348e-15
4021.45 6.128e-15
4024.15 5.6236e-15
4026.85 5.5802e-15
4029.56 5.9159e-15
4032.26 5.8636e-15
4034.96 5.7351e-15
4037.66 5.6538e-15
4040.36 5.7626e-15
4043.06 5.8276e-15
4045.76 5.4664e-15
4048.46 5.6496e-15
4051.16 5.5836e-15
4053.86 5.6953e-15
4056.56 5.6022e-15
4059.26 5.5105e-15
4061.96 5.8001e-15
4064.66 5.8024e-15
4067.36 5.6621e-15
4070.06 5.796e-15
4072.76 5.919e-15
4075.47 5.75e-15
4078.17 6.0932e-15
4080.87 5.8923e-15
4083.57 5.7078e-15
4086.27 5.5984e-15
4088.97 5.6395e-15
4091.67 5.8677e-15
4094.37 6.9351e-15
4097.07 8.5338e-15
4099.77 1.1119e-14
4102.47 1.1174e-14
4105.17 9.2413e-15
4107.87 6.8275e-15
4110.57 5.7405e-15
4113.27 5.0897e-15
4115.97 5.2724e-15
4118.67 5.2107e-15
4121.38 5.227e-15
4124.08 6.0368e-15
4126.78 5.3565e-15
4129.48 5.5252e-15
4132.18 5.8238e-15
4134.88 5.3374e-15
4137.58 5.5589e-15
4140.28 5.5779e-15
4142.98 5.4946e-15
4145.68 5.3734e-15
4148.38 5.4779e-15
4151.08 5.2238e-15
4153.78 5.5652e-15
4156.48 5.5434e-15
4159.18 5.4224e-15
4161.88 5.8056e-15
4164.58 5.6351e-15
4167.29 5.5956e-15
4169.99 5.4999e-15
4172.69 5.4533e-15
4175.39 5.3149e-15
4178.09 5.6598e-15
4180.79 5.5074e-15
4183.49 5.1571e-15
4186.19 5.2688e-15
4188.89 5.5298e-15
4191.59 5.3691e-15
4194.29 5.1754e-15
4196.99 5.2225e-15
4199.69 5.0594e-15
4202.39 5.3433e-15
4205.09 5.1661e-15
4207.79 5.264e-15
4210.49 5.1454e-15
4213.2 5.4216e-15
4215.9 5.7377e-15
4218.6 5.3486e-15
4221.3 5.5149e-15
4224.0 5.1729e-15
4226.7 5.1589e-15
4229.4 5.198e-15
4232.1 4.9794e-15
4234.8 5.2496e-15
4237.5 5.4249e-15
4240.2 5.3323e-15
4242.9 5.3213e-15
4245.6 5.3649e-15
4248.3 5.2973e-15
4251.0 5.1876e-15
4253.7 5.2118e-15
4256.4 4.8281e-15
4259.11 4.985e-15
4261.81 5.2234e-15
4264.51 5.0823e-15
4267.21 5.0939e-15
4269.91 5.2647e-15
4272.61 4.9654e-15
4275.31 5.2389e-15
4278.01 4.6219e-15
4280.71 4.7687e-15
4283.41 4.885e-15
4286.11 5.2212e-15
4288.81 4.9012e-15
4291.51 4.8237e-15
4294.21 4.856e-15
4296.91 5.1744e-15
4299.61 4.8279e-15
4302.31 4.8394e-15
4305.02 5.0083e-15
4307.72 4.9293e-15
4310.42 4.605e-15
4313.12 4.9262e-15
4315.82 4.9959e-15
4318.52 5.0803e-15
4321.22 4.7019e-15
4323.92 4.7723e-15
4326.62 4.7423e-15
4329.32 5.3704e-15
4332.02 5.9955e-15
4334.72 9.2578e-15
4337.42 1.4253e-14
4340.12 1.7445e-14
4342.82 1.5549e-14
4345.52 1.0526e-14
4348.22 6.7487e-15
4350.93 5.146e-15
4353.63 5.1578e-15
4356.33 5.0026e-15
4359.03 5.7062e-15
4361.73 6.2518e-15
4364.43 6.1017e-15
4367.13 5.5744e-15
4369.83 5.6994e-15
4372.53 4.9584e-15
4375.23 5.1234e-15
4377.93 5.3076e-15
4380.63 5.2023e-15
4383.33 5.0983e-15
4386.03 5.0961e-15
4388.73 4.8221e-15
4391.43 5.0036e-15
4394.13 5.1094e-15
4396.84 5.3495e-15
4399.54 4.7501e-15
4402.24 4.9395e-15
4404.94 4.7286e-15
4407.64 5.0639e-15
4410.34 5.0955e-15
4413.04 4.7118e-15
4415.74 4.8513e-15
4418.44 4.7811e-15
4421.14 4.8521e-15
4423.84 5.1171e-15
4426.54 4.8629e-15
4429.24 4.6839e-15
4431.94 4.5219e-15
4434.64 4.3244e-15
4437.34 4.8188e-15
4440.04 4.7377e-15
4442.75 4.9002e-15
4445.45 4.9778e-15
4448.15 4.9589e-15
4450.85 4.789e-15
4453.55 4.8327e-15
4456.25 5.1547e-15
4458.95 4.6849e-15
4461.65 5.0866e-15
4464.35 4.7189e-15
4467.05 5.4411e-15
4469.75 5.8835e-15
4472.45 5.9454e-15
4475.15 5.2984e-15
4477.85 5.2309e-15
4480.55 4.8023e-15
4483.25 4.8632e-15
4485.95 4.7183e-15
4488.66 4.9505e-15
4491.36 4.7943e-15
4494.06 4.6039e-15
4496.76 4.5747e-15
4499.46 4.6581e-15
4502.16 4.7322e-15
4504.86 4.9745e-15
4507.56 4.9088e-15
4510.26 4.922e-15
4512.96 4.9614e-15
4515.66 5.0674e-15
4518.36 4.6347e-15
4521.06 4.8626e-15
4523.76 4.6314e-15
4526.46 5.2674e-15
4529.16 4.7663e-15
4531.86 4.9078e-15
4534.57 4.8614e-15
4537.27 4.736e-15
4539.97 4.8162e-15
4542.67 4.6839e-15
4545.37 4.5386e-15
4548.07 4.723e-15
4550.77 4.7096e-15
4553.47 4.8416e-15
4556.17 4.6731e-15
4558.87 4.6292e-15
4561.57 4.8152e-15
4564.27 4.9921e-15
4566.97 4.693e-15
4569.67 4.8289e-15
4572.37 4.9451e-15
4575.07 4.5798e-15
4577.77 4.7682e-15
4580.48 4.7073e-15
4583.18 4.7634e-15
4585.88 4.4374e-15
4588.58 4.8711e-15
4591.28 4.565e-15
4593.98 4.7751e-15
4596.68 4.3623e-15
4599.38 4.8317e-15
4602.08 4.7114e-15
4604.78 4.6867e-15
4607.48 4.7324e-15
4610.18 4.476e-15
4612.88 4.958e-15
4615.58 4.4611e-15
4618.28 4.5346e-15
4620.98 4.6801e-15
4623.68 4.2012e-15
4626.39 4.6238e-15
4629.09 4.3015e-15
4631.79 4.6179e-15
4634.49 4.9058e-15
4637.19 4.4446e-15
4639.89 4.6437e-15
4642.59 4.9894e-15
4645.29 4.9892e-15
4647.99 4.9076e-15
4650.69 4.7458e-15
4653.39 4.9271e-15
4656.09 4.9374e-15
4658.79 5.215e-15
4661.49 5.005e-15
4664.19 4.7281e-15
4666.89 4.3892e-15
4669.59 4.6719e-15
4672.3 4.6652e-15
4675.0 4.8308e-15
4677.7 4.6724e-15
4680.4 4.7251e-15
4683.1 4.6329e-15
4685.8 4.5393e-15
4688.5 4.4413e-15
4691.2 4.4364e-15
4693.9 4.7799e-15
4696.6 5.0137e-15
4699.3 4.8409e-15
4702.0 4.7111e-15
4704.7 4.6952e-15
4707.4 4.6295e-15
4710.1 4.4291e-15
4712.8 4.8454e-15
4715.5 4.5703e-15
4718.21 4.5872e-15
4720.91 4.5294e-15
4723.61 4.4739e-15
4726.31 4.387e-15
4729.01 4.4373e-15
4731.71 4.8614e-15
4734.41 4.5464e-15
4737.11 4.4045e-15
4739.81 4.2797e-15
4742.51 4.5672e-15
4745.21 4.7517e-15
4747.91 4.3944e-15
4750.61 4.5245e-15
4753.31 4.3953e-15
4756.01 4.1721e-15
4758.71 4.2736e-15
4761.41 4.2425e-15
4764.12 4.2073e-15
4766.82 4.282e-15
4769.52 4.4617e-15
4772.22 4.2252e-15
4774.92 4.3645e-15
4777.62 4.2373e-15
4780.32 4.4271e-15
4783.02 4.2952e-15
4785.72 4.1628e-15
4788.42 4.1134e-15
4791.12 4.2469e-15
4793.82 4.0726e-15
4796.52 4.1533e-15
4799.22 4.2715e-15
4801.92 4.2473e-15
4804.62 4.2182e-15
4807.32 4.1071e-15
4810.03 4.1488e-15
4812.73 4.3189e-15
4815.43 4.3536e-15
4818.13 4.2429e-15
4820.83 4.2296e-15
4823.53 4.0957e-15
4826.23 4.3175e-15
4828.93 4.3085e-15
4831.63 4.4409e-15
4834.33 4.4414e-15
4837.03 4.204e-15
4839.73 4.1428e-15
4842.43 4.031e-15
4845.13 4.0562e-15
4847.83 4.396e-15
4850.53 4.9139e-15
4853.23 7.4312e-15
4855.94 1.5059e-14
4858.64 2.7234e-14
4861.34 3.4302e-14
4864.04 2.8788e-14
4866.74 1.6413e-14
4869.44 8.0878e-15
4872.14 5.0723e-15
4874.84 4.5241e-15
4877.54 4.1394e-15
4880.24 4.1889e-15
4882.94 4.0996e-15
4885.64 4.2571e-15
4888.34 4.0816e-15
4891.04 3.9204e-15
4893.74 4.0209e-15
4896.44 4.1706e-15
4899.15 4.205e-15
4901.85 4.1959e-15
4904.55 3.9726e-15
4907.25 4.024e-15
4909.95 4.1158e-15
4912.65 4.1066e-15
4915.35 3.9589e-15
4918.05 4.3084e-15
4920.75 4.3519e-15
4923.45 4.2073e-15
4926.15 4.1205e-15
4928.85 4.1226e-15
4931.55 4.0208e-15
4934.25 4.0005e-15
4936.95 3.8911e-15
4939.65 4.1474e-15
4942.35 4.272e-15
4945.06 4.274e-15
4947.76 5.2985e-15
4950.46 8.4885e-15
4953.16 1.8342e-14
4955.86 3.2011e-14
4958.56 4.2563e-14
4961.26 4.2488e-14
4963.96 2.5198e-14
4966.66 1.1179e-14
4969.36 5.8338e-15
4972.06 4.6541e-15
4974.76 4.169e-15
4977.46 4.0558e-15
4980.16 4.0397e-15
4982.86 4.3061e-15
4985.56 4.6746e-15
4988.26 4.6706e-15
4990.97 4.5787e-15
4993.67 5.3682e-15
4996.37 8.6609e-15
4999.07 2.1935e-14
5001.77 5.9478e-14
5004.47 1.1356e-13
5007.17 1.3804e-13
5009.87 1.0753e-13
5012.57 5.3868e-14
5015.27 1.9624e-14
5017.97 8.3514e-15
5020.67 5.2675e-15
5023.37 4.4425e-15
5026.07 4.3526e-15
5028.77 4.2146e-15
5031.47 4.0996e-15
5034.17 4.0659e-15
5036.88 4.366e-15
5039.58 4.2031e-15
5042.28 4.1119e-15
5044.98 3.9991e-15
5047.68 4.1039e-15
5050.38 4.0029e-15
5053.08 4.0321e-15
5055.78 4.234e-15
5058.48 4.1339e-15
5061.18 3.9892e-15
5063.88 4.0532e-15
5066.58 3.7438e-15
5069.28 3.8134e-15
5071.98 3.6639e-15
5074.68 3.7568e-15
5077.38 3.8626e-15
5080.08 3.9133e-15
5082.79 3.7716e-15
5085.49 3.7868e-15
5088.19 3.6473e-15
5090.89 3.4886e-15
5093.59 3.6041e-15
5096.29 3.8107e-15
5098.99 3.783e-15
5101.69 3.7736e-15
5104.39 3.9927e-15
5107.09 4.0173e-15
5109.79 3.7082e-15
5112.49 3.5858e-15
5115.19 3.6568e-15
5117.89 3.7194e-15
5120.59 3.7613e-15
5123.29 3.7263e-15
5125.99 3.5476e-15
5128.7 3.5203e-15
5131.4 3.828e-15
5134.1 3.7521e-15
5136.8 3.7792e-15
5139.5 3.5687e-15
5142.2 3.4465e-15
5144.9 3.6712e-15
5147.6 3.59e-15
5150.3 3.9576e-15
5153.0 4.1178e-15
5155.7 3.9405e-15
5158.4 3.811e-15
5161.1 3.7014e-15
5163.8 3.6113e-15
5166.5 3.6494e-15
5169.2 3.5335e-15
5171.9 3.4887e-15
5174.61 3.7258e-15
5177.31 3.6569e-15
5180.01 3.5409e-15
5182.71 3.5064e-15
5185.41 3.616e-15
5188.11 3.5614e-15
5190.81 3.5255e-15
5193.51 3.7862e-15
5196.21 4.1337e-15
5198.91 4.2218e-15
5201.61 4.1565e-15
5204.31 3.9333e-15
5207.01 3.6515e-15
5209.71 3.5393e-15
5212.41 3.7138e-15
5215.11 3.8699e-15
5217.81 3.6731e-15
5220.52 3.6141e-15
5223.22 3.6292e-15
5225.92 3.5656e-15
5228.62 3.6881e-15
5231.32 3.6755e-15
5234.02 3.637e-15
5236.72 3.6253e-15
5239.42 3.4744e-15
5242.12 3.6143e-15
5244.82 3.6646e-15
5247.52 3.7318e-15
5250.22 3.567e-15
5252.92 3.5056e-15
5255.62 3.5017e-15
5258.32 3.3628e-15
5261.02 3.4863e-15
5263.72 3.3045e-15
5266.43 3.5263e-15
5269.13 3.6864e-15
5271.83 3.7936e-15
5274.53 3.7509e-15
5277.23 3.4771e-15
5279.93 3.5136e-15
5282.63 3.3823e-15
5285.33 3.3612e-15
5288.03 3.501e-15
5290.73 3.5865e-15
5293.43 3.4522e-15
5296.13 3.6829e-15
5298.83 3.7244e-15
5301.53 3.4781e-15
5304.23 3.4997e-15
5306.93 3.5808e-15
5309.63 3.7505e-15
5312.34 3.5746e-15
5315.04 3.5334e-15
5317.74 3.5518e-15
5320.44 3.5882e-15
5323.14 3.5707e-15
5325.84 3.4415e-15
5328.54 3.3236e-15
5331.24 3.5128e-15
5333.94 3.5872e-15
5336.64 3.5103e-15
5339.34 3.5139e-15
5342.04 3.2811e-15
5344.74 3.2878e-15
5347.44 3.2909e-15
5350.14 3.6514e-15
5352.84 3.5274e-15
5355.54 3.3438e-15
5358.25 3.5317e-15
5360.95 3.5707e-15
5363.65 3.4493e-15
5366.35 3.5068e-15
5369.05 3.4274e-15
5371.75 3.6063e-15
5374.45 3.5456e-15
5377.15 3.4426e-15
5379.85 3.8424e-15
5382.55 3.6712e-15
5385.25 3.58e-15
5387.95 3.4985e-15
5390.65 3.511e-15
5393.35 3.513e-15
5396.05 3.479e-15
5398.75 3.4441e-15
5401.45 3.3629e-15
5404.16 3.2548e-15
5406.86 3.3878e-15
5409.56 3.4643e-15
5412.26 3.5341e-15
5414.96 3.6571e-15
5417.66 3.5681e-15
5420.36 3.2396e-15
5423.06 3.2223e-15
5425.76 3.5892e-15
5428.46 3.4063e-15
5431.16 3.3138e-15
5433.86 3.2489e-15
5436.56 3.3182e-15
5439.26 3.297e-15
5441.96 3.5028e-15
5444.66 3.5167e-15
5447.36 3.5324e-15
5450.07 3.4674e-15
5452.77 3.4396e-15
5455.47 3.4238e-15
5458.17 3.2487e-15
5460.87 3.1184e-15
5463.57 3.5102e-15
5466.27 2.9961e-15
5468.97 3.3409e-15
5471.67 3.3144e-15
5474.37 3.5956e-15
5477.07 3.6853e-15
5479.77 3.2772e-15
5482.47 3.3448e-15
5485.17 3.3882e-15
5487.87 3.2237e-15
5490.57 3.4904e-15
5493.27 3.1322e-15
5495.98 3.3232e-15
5498.68 3.3592e-15
5501.38 3.3832e-15
5504.08 3.3194e-15
5506.78 3.5503e-15
5509.48 3.3368e-15
5512.18 3.6848e-15
5514.88 3.5737e-15
5517.58 3.7135e-15
5520.28 3.4688e-15
5522.98 3.07e-15
5525.68 3.4143e-15
5528.38 3.2915e-15
5531.08 3.2147e-15
5533.78 3.6869e-15
5536.48 3.1765e-15
5539.18 3.1912e-15
5541.89 3.4476e-15
5544.59 3.2443e-15
5547.29 3.2135e-15
5549.99 3.4647e-15
5552.69 3.32e-15
5555.39 3.3057e-15
5558.09 3.2949e-15
5560.79 3.1936e-15
5563.49 3.16e-15
5566.19 3.3962e-15
5568.89 2.9856e-15
5571.59 3.1441e-15
5574.29 3.4503e-15
5576.99 3.413e-15
5579.69 3.3744e-15
5582.39 3.3586e-15
5585.09 3.2848e-15
5587.8 3.2072e-15
5590.5 3.3469e-15
5593.2 3.0098e-15
5595.9 3.4185e-15
5598.6 3.2369e-15
5601.3 3.015e-15
5604.0 3.1439e-15
5606.7 3.0511e-15
5609.4 3.1905e-15
5612.1 2.9985e-15
5614.8 3.3666e-15
5617.5 3.1961e-15
5620.2 2.9908e-15
5622.9 3.2008e-15
5625.6 3.1707e-15
5628.3 3.0066e-15
5631.0 3.4438e-15
5633.71 3.2195e-15
5636.41 2.9502e-15
5639.11 2.9753e-15
5641.81 3.0552e-15
5644.51 3.2665e-15
5647.21 2.9607e-15
5649.91 3.2476e-15
5652.61 3.3158e-15
5655.31 3.0248e-15
5658.01 3.2236e-15
5660.71 2.9966e-15
5663.41 3.0491e-15
5666.11 2.8145e-15
5668.81 2.9069e-15
5671.51 2.9981e-15
5674.21 3.1002e-15
5676.91 3.0561e-15
5679.62 2.9229e-15
5682.32 2.9885e-15
5685.02 3.1299e-15
5687.72 2.9465e-15
5690.42 3.0487e-15
5693.12 3.0337e-15
5695.82 2.9678e-15
5698.52 3.0684e-15
5701.22 3.439e-15
5703.92 3.2393e-15
5706.62 3.083e-15
5709.32 3.0157e-15
5712.02 3.2e-15
5714.72 3.1989e-15
5717.42 3.334e-15
5720.12 3.3418e-15
5722.82 3.2866e-15
5725.53 3.2442e-15
5728.23 2.9554e-15
5730.93 3.0049e-15
5733.63 2.9569e-15
5736.33 3.3565e-15
5739.03 3.1141e-15
5741.73 2.9462e-15
5744.43 2.7628e-15
5747.13 3.0084e-15
5749.83 3.3031e-15
5752.53 3.2369e-15
5755.23 3.1472e-15
5757.93 3.1543e-15
5760.63 3.0758e-15
5763.33 2.869e-15
5766.03 3.1706e-15
5768.74 2.8246e-15
5771.44 3.0877e-15
5774.14 3.2226e-15
5776.84 2.9875e-15
5779.54 2.9236e-15
5782.24 2.7371e-15
5784.94 3.074e-15
5787.64 2.9772e-15
5790.34 2.8642e-15
5793.04 3.3261e-15
5795.74 3.0666e-15
5798.44 3.0886e-15
5801.14 3.2314e-15
5803.84 2.9252e-15
5806.54 2.8115e-15
5809.24 3.2969e-15
5811.94 3.3545e-15
5814.65 3.106e-15
5817.35 3.1408e-15
5820.05 3.1354e-15
5822.75 3.1437e-15
5825.45 2.9476e-15
5828.15 2.8789e-15
5830.85 3.1565e-15
5833.55 3.114e-15
5836.25 3.1003e-15
5838.95 2.9112e-15
5841.65 2.7103e-15
5844.35 2.8186e-15
5847.05 2.9949e-15
5849.75 3.0836e-15
5852.45 2.9285e-15
5855.15 2.9134e-15
5857.85 3.0049e-15
5860.56 3.0066e-15
5863.26 3.1064e-15
5865.96 3.0988e-15
5868.66 3.4559e-15
5871.36 4.579e-15
5874.06 5.7939e-15
5876.76 6.1421e-15
5879.46 5.166e-15
5882.16 3.8482e-15
5884.86 3.0926e-15
5887.56 3.0447e-15
5890.26 2.9274e-15
5892.96 2.8796e-15
5895.66 2.9797e-15
5898.36 2.992e-15
5901.06 3.1273e-15
5903.76 3.0936e-15
5906.47 2.9904e-15
5909.17 2.9815e-15
5911.87 3.0453e-15
5914.57 3.0639e-15
5917.27 2.9935e-15
5919.97 2.9248e-15
5922.67 2.8608e-15
5925.37 2.8708e-15
5928.07 3.1e-15
5930.77 3.0105e-15
5933.47 2.818e-15
5936.17 2.844e-15
5938.87 2.8019e-15
5941.57 3.0324e-15
5944.27 3.0522e-15
5946.97 3.0828e-15
5949.67 2.929e-15
5952.38 2.8798e-15
5955.08 3.1012e-15
5957.78 3.0972e-15
5960.48 3.0596e-15
5963.18 3.1485e-15
5965.88 3.2734e-15
5968.58 3.1703e-15
5971.28 3.0642e-15
5973.98 2.8354e-15
5976.68 2.8964e-15
5979.38 2.8837e-15
5982.08 2.8041e-15
5984.78 2.8542e-15
5987.48 2.7073e-15
5990.18 3.1302e-15
5992.88 2.8247e-15
5995.58 2.9941e-15
5998.29 3.1318e-15
6000.99 2.8624e-15
6003.69 2.7361e-15
6006.39 2.8587e-15
6009.09 2.821e-15
6011.79 2.7904e-15
6014.49 2.7606e-15
6017.19 2.7506e-15
6019.89 2.7199e-15
6022.59 2.6858e-15
6025.29 3.0482e-15
6027.99 2.8912e-15
6030.69 2.9632e-15
6033.39 2.5472e-15
6036.09 2.8497e-15
6038.79 2.7174e-15
6041.49 3.0922e-15
6044.2 3.0352e-15
6046.9 3.1305e-15
6049.6 2.8834e-15
6052.3 2.7741e-15
6055.0 2.8603e-15
6057.7 2.7195e-15
6060.4 2.7924e-15
6063.1 2.5531e-15
6065.8 3.0995e-15
6068.5 2.882e-15
6071.2 2.8778e-15
6073.9 2.7803e-15
6076.6 2.8441e-15
6079.3 2.7835e-15
6082.0 2.6127e-15
6084.7 2.5793e-15
6087.4 2.8491e-15
6090.11 2.5776e-15
6092.81 2.8128e-15
6095.51 2.7871e-15
6098.21 3.0918e-15
6100.91 2.8276e-15
6103.61 2.7055e-15
6106.31 2.6998e-15
6109.01 2.7763e-15
6111.71 2.9219e-15
6114.41 2.8432e-15
6117.11 2.8099e-15
6119.81 2.7544e-15
6122.51 2.61e-15
6125.21 2.8032e-15
6127.91 2.7563e-15
6130.61 2.8692e-15
6133.31 2.7798e-15
6136.02 2.6807e-15
6138.72 2.7901e-15
6141.42 2.7719e-15
6144.12 2.6825e-15
6146.82 2.4037e-15
6149.52 2.3501e-15
6152.22 2.3415e-15
6154.92 2.4872e-15
6157.62 2.543e-15
6160.32 2.6914e-15
6163.02 2.4262e-15
6165.72 2.7304e-15
6168.42 2.997e-15
6171.12 2.7872e-15
6173.82 2.6987e-15
6176.52 2.8836e-15
6179.22 2.8174e-15
6181.93 2.8117e-15
6184.63 2.5879e-15
6187.33 2.9064e-15
6190.03 2.6394e-15
6192.73 2.652e-15
6195.43 2.6984e-15
6198.13 2.6058e-15
6200.83 2.6375e-15
6203.53 2.8708e-15
6206.23 2.7302e-15
6208.93 2.6627e-15
6211.63 2.6091e-15
6214.33 2.9838e-15
6217.03 2.7092e-15
6219.73 2.8416e-15
6222.43 2.6343e-15
6225.13 2.3807e-15
6227.84 2.6491e-15
6230.54 2.545e-15
6233.24 2.3391e-15
6235.94 2.2891e-15
6238.64 2.4681e-15
6241.34 2.4874e-15
6244.04 2.7701e-15
6246.74 2.6805e-15
6249.44 2.6557e-15
6252.14 2.6599e-15
6254.84 2.7236e-15
6257.54 2.7854e-15
6260.24 2.5901e-15
6262.94 2.4424e-15
6265.64 2.6082e-15
6268.34 2.618e-15
6271.04 2.6041e-15
6273.75 2.7178e-15
6276.45 2.5081e-15
6279.15 2.5516e-15
6281.85 2.5954e-15
6284.55 2.5045e-15
6287.25 2.8345e-15
6289.95 2.7446e-15
6292.65 2.8389e-15
6295.35 3.6305e-15
6298.05 4.5742e-15
6300.75 4.8252e-15
6303.45 4.3239e-15
6306.15 3.3373e-15
6308.85 3.478e-15
6311.55 3.1481e-15
6314.25 3.2586e-15
6316.95 2.8087e-15
6319.66 2.7928e-15
6322.36 2.7383e-15
6325.06 2.5318e-15
6327.76 2.8227e-15
6330.46 2.7552e-15
6333.16 2.4073e-15
6335.86 2.6782e-15
6338.56 2.5802e-15
6341.26 2.8507e-15
6343.96 2.5131e-15
6346.66 2.5245e-15
6349.36 2.802e-15
6352.06 2.8399e-15
6354.76 2.5733e-15
6357.46 2.666e-15
6360.16 3.1606e-15
6362.86 3.416e-15
6365.57 3.2767e-15
6368.27 3.2953e-15
6370.97 3.0369e-15
6373.67 2.7466e-15
6376.37 2.858e-15
6379.07 2.9373e-15
6381.77 2.6354e-15
6384.47 2.6294e-15
6387.17 2.8079e-15
6389.87 2.5225e-15
6392.57 2.5195e-15
6395.27 2.5661e-15
6397.97 2.6048e-15
6400.67 2.7028e-15
6403.37 2.5952e-15
6406.07 2.5824e-15
6408.77 2.4693e-15
6411.48 2.4897e-15
6414.18 2.6535e-15
6416.88 2.5244e-15
6419.58 2.4463e-15
6422.28 2.5068e-15
6424.98 2.5943e-15
6427.68 2.7506e-15
6430.38 2.5385e-15
6433.08 2.5289e-15
6435.78 2.5797e-15
6438.48 2.5102e-15
6441.18 2.5155e-15
6443.88 2.4816e-15
6446.58 2.3764e-15
6449.28 2.6954e-15
6451.98 2.5169e-15
6454.68 2.3965e-15
6457.39 2.5802e-15
6460.09 2.466e-15
6462.79 2.2706e-15
6465.49 2.4441e-15
6468.19 2.5778e-15
6470.89 2.3865e-15
6473.59 2.3028e-15
6476.29 2.5321e-15
6478.99 2.3434e-15
6481.69 2.5864e-15
6484.39 2.2764e-15
6487.09 2.6909e-15
6489.79 2.3137e-15
6492.49 2.2394e-15
6495.19 2.2921e-15
6497.89 2.3814e-15
6500.59 2.4888e-15
6503.3 2.7804e-15
6506.0 2.5841e-15
6508.7 2.6646e-15
6511.4 2.3254e-15
6514.1 2.6546e-15
6516.8 2.4323e-15
6519.5 2.6239e-15
6522.2 2.7502e-15
6524.9 2.8276e-15
6527.6 2.8316e-15
6530.3 2.3492e-15
6533.0 2.7854e-15
6535.7 2.7759e-15
6538.4 2.9017e-15
6541.1 3.0567e-15
6543.8 3.9042e-15
6546.5 4.5452e-15
6549.21 4.8315e-15
6551.91 6.5606e-15
6554.61 1.3877e-14
6557.31 3.9771e-14
6560.01 8.1569e-14
6562.71 1.0147e-13
6565.41 7.8957e-14
6568.11 3.8852e-14
6570.81 1.3976e-14
6573.51 5.868e-15
6576.21 4.4836e-15
6578.91 5.323e-15
6581.61 7.0232e-15
6584.31 7.1163e-15
6587.01 5.6848e-15
6589.71 3.8451e-15
6592.41 3.097e-15
6595.12 2.8365e-15
6597.82 2.5485e-15
6600.52 2.8297e-15
6603.22 2.7076e-15
6605.92 2.5754e-15
6608.62 2.7052e-15
6611.32 2.6512e-15
6614.02 2.608e-15
6616.72 2.3588e-15
6619.42 2.4173e-15
6622.12 2.556e-15
6624.82 2.3816e-15
6627.52 2.5677e-15
6630.22 2.5158e-15
6632.92 2.4187e-15
6635.62 2.3563e-15
6638.32 2.2886e-15
6641.03 2.4729e-15
6643.73 2.4938e-15
6646.43 2.6672e-15
6649.13 2.4872e-15
6651.83 2.5583e-15
6654.53 2.6238e-15
6657.23 2.6269e-15
6659.93 2.6053e-15
6662.63 2.5744e-15
6665.33 2.4805e-15
6668.03 2.3767e-15
6670.73 2.8801e-15
6673.43 3.2522e-15
6676.13 3.6217e-15
6678.83 3.5584e-15
6681.53 2.8703e-15
6684.24 2.6919e-15
6686.94 2.2611e-15
6689.64 2.5512e-15
6692.34 2.3062e-15
6695.04 2.5413e-15
6697.74 2.4404e-15
6700.44 2.4349e-15
6703.14 2.9126e-15
6705.84 2.5997e-15
6716.24 2.5064e-15
6731.72 2.4713e-15
6747.24 2.4479e-15
6762.79 2.4527e-15
6778.38 2.4407e-15
6794.0 2.4176e-15
6809.67 2.4392e-15
6825.37 2.4328e-15
6841.1 2.4432e-15
6856.87 2.4201e-15
6872.68 2.348e-15
6888.52 2.3635e-15
6904.4 2.3682e-15
6920.32 2.3729e-15
6936.27 2.3941e-15
6952.26 2.4154e-15
6968.29 2.4091e-15
6984.35 2.3159e-15
7000.45 2.391e-15
7016.59 2.3792e-15
7032.76 2.3458e-15
7048.97 2.4443e-15
7065.23 2.2909e-15
7081.51 2.3167e-15
7097.84 2.1965e-15
7114.2 2.2212e-15
7130.6 2.2307e-15
7147.04 2.1493e-15
7163.51 2.1885e-15
7180.03 2.1578e-15
7196.58 2.079e-15
7213.17 2.0975e-15
7229.8 2.1655e-15
7246.46 2.1598e-15
7263.17 2.2145e-15
7279.91 2.1633e-15
7296.69 2.128e-15
7313.51 2.2071e-15
7330.37 2.2422e-15
7347.27 2.2884e-15
7364.21 2.1646e-15
7381.18 2.2816e-15
7398.2 2.2186e-15
7415.25 2.2539e-15
7432.35 2.2069e-15
7449.48 2.196e-15
7466.65 2.2309e-15
7483.86 2.2301e-15
7501.12 2.1736e-15
7518.41 2.198e-15
7535.74 2.2432e-15
7553.11 2.2167e-15
7570.53 2.2159e-15
7587.98 2.205e-15
7605.47 2.1392e-15
7623.0 2.1532e-15
7640.57 2.1035e-15
7658.19 2.1076e-15
7675.84 1.8691e-15
7693.54 2.0299e-15
7711.27 1.9423e-15
7729.05 2.0284e-15
7746.87 2.0323e-15
7764.72 1.9991e-15
7782.62 1.9128e-15
7800.57 1.9839e-15
7818.55 1.9877e-15
7836.57 2.0054e-15
7854.64 2.0279e-15
7872.74 2.0271e-15
7890.89 1.9985e-15
7909.08 1.9704e-15
7927.31 1.916e-15
7945.59 1.9065e-15
7963.9 1.9278e-15
7982.26 1.9629e-15
8000.66 1.9442e-15
8019.11 1.9434e-15
8037.59 1.916e-15
8056.12 1.9109e-15
8074.69 1.9367e-15
8093.3 1.9007e-15
8111.96 1.9308e-15
8130.66 1.9345e-15
8149.4 1.8767e-15
8168.19 1.8934e-15
8187.02 1.795e-15
8205.89 1.7697e-15
8224.81 1.8912e-15
8243.77 1.8559e-15
8262.77 1.8552e-15
8281.83 1.8122e-15
8300.92 1.8367e-15
8320.05 1.8108e-15
8339.23 1.8184e-15
8358.46 1.8094e-15
8377.72 1.8508e-15
8397.03 1.7147e-15
8416.39 1.8366e-15
8435.79 1.7694e-15
8455.24 1.7166e-15
8474.73 1.7119e-15
8494.27 1.8043e-15
8513.85 1.7184e-15
8533.47 1.774e-15
8553.15 1.3514e-15
8572.86 1.7766e-15
8592.63 1.7275e-15
8612.44 1.6875e-15
8632.29 1.7541e-15
8652.19 1.7373e-15
8672.14 1.2042e-15
8692.13 1.6577e-15
8712.16 1.6956e-15
8732.24 1.7505e-15
8752.38 1.6518e-15
8772.55 1.6703e-15
8792.77 1.7362e-15
8813.05 1.6921e-15
8833.36 1.6377e-15
8853.72 1.6751e-15
8874.14 1.4752e-15
8894.59 1.6394e-15
8915.09 1.6691e-15
8935.65 1.638e-15
8956.25 1.5963e-15
8976.89 1.5956e-15
8997.58 1.4052e-15
9018.33 1.4674e-15
9039.12 1.6046e-15
9059.95 1.7028e-15
9080.84 1.5345e-15
9101.77 1.6025e-15
9122.75 1.6773e-15
9143.79 1.5325e-15
9164.86 1.423e-15
9185.99 1.4589e-15
9207.16 1.5518e-15
9228.39 1.4711e-15
9249.66 1.4909e-15
9270.98 1.5355e-15
9292.36 1.5741e-15
9313.78 1.5341e-15
9335.25 1.5263e-15
9356.77 1.5221e-15
9378.34 1.504e-15
9399.96 1.5103e-15
9421.63 1.5061e-15
9443.35 1.4848e-15
9465.12 1.4978e-15
9486.93 1.4937e-15
9508.81 1.4657e-15
9530.73 1.4516e-15
9552.69 1.3729e-15
9574.72 1.4403e-15
9596.79 1.4731e-15
9618.91 1.4589e-15
9641.09 1.4583e-15
9663.31 1.4409e-15
9685.59 1.4502e-15
9707.91 1.4395e-15
9730.29 1.4322e-15
9752.72 1.425e-15
9775.2 1.4243e-15
9797.74 1.4073e-15
9820.33 1.4262e-15
9842.96 1.4189e-15
9865.65 1.4085e-15
9888.39 1.4046e-15
9911.2 1.3974e-15
9934.04 1.4e-15
9956.94 1.3961e-15
9979.89 1.3922e-15
10025.96 1.356e-15
10072.24 1.3269e-15
10118.73 1.3533e-15
10165.43 1.3396e-15
10235.9 1.3345e-15
10283.14 1.327e-15
10306.85 1.3172e-15
10498.46 1.2643e-15
10693.65 1.2099e-15
10892.46 1.1214e-15
11094.96 1.0635e-15
11301.23 1.0393e-15
11511.34 1.0274e-15
11698.39 1.0017e-15
11888.47 9.7219e-16
12109.5 9.4569e-16
12306.26 9.2417e-16
12506.22 8.9485e-16
12709.43 8.6846e-16
12886.23 8.4285e-16
13095.62 8.2556e-16
13308.4 8.0122e-16
13493.54 7.8479e-16
13712.79 7.6692e-16
13903.56 7.4089e-16
14096.98 7.0591e-16
14293.09 6.8038e-16
14491.93 6.7414e-16
14693.53 6.5426e-16
14897.94 6.5426e-16
15105.17 6.4826e-16
15315.31 6.4826e-16
15492.66 6.4677e-16
15708.18 6.2481e-16
15890.08 5.9259e-16
16111.13 5.8715e-16
16297.68 5.8177e-16
16486.4 5.6722e-16
16715.75 5.6202e-16
16909.31 5.4923e-16
17105.12 5.392e-16
17303.17 5.197e-16
17503.54 5.0904e-16
17706.23 4.9289e-16
17911.26 4.7946e-16
18118.65 4.5999e-16
18286.3 4.4643e-16
18498.05 4.3227e-16
18712.26 4.1376e-16
18885.39 4.0064e-16
19104.07 3.9332e-16
19280.85 3.791e-16
19504.1 3.6371e-16
19684.57 3.5217e-16
19912.51 3.41e-16
20096.75 3.3324e-16
20282.71 3.1971e-16
20517.58 3.1243e-16
20707.41 3.0182e-16
20899.03 2.9292e-16
21092.39 2.856e-16
21287.56 2.7717e-16
21484.54 2.6962e-16
21683.32 2.5987e-16
21883.96 2.5395e-16
22086.46 2.4646e-16
22290.81 2.3919e-16
22497.08 2.3268e-16
22705.22 2.2633e-16
22915.32 2.0265e-16
23074.15 2.0172e-16
23287.67 1.765e-16
23503.15 1.6396e-16
23720.61 1.674e-16
23885.05 1.5408e-16
24106.04 1.4919e-16
24273.15 1.5023e-16
24497.73 1.4215e-16
24724.41 1.4215e-16
24895.78 1.2409e-16
25126.15 1.2553e-16
25300.3 1.2816e-16
25475.69 1.2905e-16
25711.43 1.3054e-16
25889.64 1.2698e-16
26129.2 1.2611e-16
26310.31 1.2296e-16
26492.7 1.2127e-16
26676.32 1.1851e-16
26923.17 1.1635e-16
27109.78 1.1475e-16
27297.68 1.1188e-16
27486.91 1.1009e-16
27677.43 1.0709e-16
27869.3 1.0562e-16
28127.15 1.0322e-16
28322.14 1.0157e-16
28518.44 9.9255e-17
28716.14 9.6995e-17
28915.17 9.5225e-17
29115.62 9.3272e-17
29317.43 9.1149e-17
29520.66 8.9074e-17
29725.28 8.7448e-17
29931.34 8.5261e-17
30069.49 8.3512e-17
30277.9 8.1424e-17
30487.8 7.9938e-17
30699.11 7.8298e-17
30911.93 7.6516e-17
31126.19 7.4946e-17
31269.85 7.3409e-17
31486.62 7.1904e-17
31704.86 7.0429e-17
31924.64 6.9143e-17
32071.99 6.7725e-17
32294.32 6.6642e-17
32518.16 6.6031e-17
32668.24 6.6336e-17
32894.71 6.9783e-17
33122.71 6.851e-17
33275.62 6.2481e-17
33506.26 5.9669e-17
33738.5 5.7776e-17
33894.25 5.6202e-17
34129.18 5.4923e-17
34286.74 5.3796e-17
34524.38 5.2814e-17
34683.73 5.1731e-17
34924.17 5.067e-17
35085.36 4.9745e-17
35328.58 4.8725e-17
35491.64 4.7836e-17
35737.64 4.6962e-17
35902.62 4.5999e-17
36068.33 4.5264e-17
36318.32 4.4438e-17
36485.99 4.3526e-17
36738.88 4.2732e-17
36908.45 4.1855e-17
37078.84 4.1091e-17
37335.84 4.0434e-17
37508.16 3.9514e-17
37681.32 3.9152e-17
37942.49 3.8437e-17
38117.66 3.7823e-17
38293.59 3.7304e-17
38470.33 3.6707e-17
38737.01 3.6037e-17
38915.81 3.5461e-17
39095.42 3.4894e-17
39275.9 3.4415e-17
39457.18 3.3847e-17
39730.67 3.3475e-17
39914.08 3.2925e-17
40098.31 3.2534e-17
40283.38 3.2147e-17
40469.3 3.1692e-17
40656.13 3.1388e-17
40937.93 3.1045e-17
41126.92 3.0676e-17
41316.74 3.0383e-17
41507.44 3.0023e-17
41699.01 2.9599e-17
41891.52 2.9316e-17
42084.86 2.8969e-17
42279.11 2.8758e-17
42474.29 2.8418e-17
42670.33 2.8212e-17
42867.27 2.7307e-17
43065.17 2.6492e-17
43263.94 2.6604e-17
43463.62 2.581e-17
43664.22 2.5447e-17
43865.8 2.5205e-17
44068.26 2.451e-17
44271.65 2.4445e-17
44476.04 2.4213e-17
44681.32 2.3709e-17
44887.54 2.3865e-17
45094.77 2.3585e-17
45302.9 2.3254e-17
45511.99 2.3354e-17
45722.1 2.324e-17
45933.13 2.2862e-17
46145.13 2.3066e-17
46251.5 2.2825e-17
46465.02 2.2766e-17
46679.48 2.276e-17
46894.93 2.2702e-17
47111.42 2.2591e-17
47328.86 2.2742e-17
47547.3 2.2632e-17
47656.91 2.2551e-17
47876.92 2.2545e-17
48097.89 2.2436e-17
48319.88 2.2638e-17
48542.9 2.2529e-17
48654.85 2.2449e-17
48879.41 2.2496e-17
49105.02 2.2495e-17
49331.71 2.2797e-17
49445.42 2.2922e-17
49673.64 2.3386e-17
49902.9 2.3638e-17
50133.28 2.4056e-17
50248.84 2.4239e-17
50480.76 2.455e-17
50713.76 2.4978e-17
50830.71 2.5165e-17
50947.88 2.5352e-17
51065.32 2.554e-17
51183.03 2.5729e-17
51301.01 2.5919e-17
51419.26 2.611e-17
51537.78 2.6301e-17
51656.64 2.6616e-17
51775.71 2.6871e-17
51895.06 2.7066e-17
52014.68 2.7262e-17
52134.58 2.7459e-17
52254.75 2.772e-17
52375.26 2.7919e-17
52495.99 2.8183e-17
52617.0 2.8515e-17
52738.28 2.8851e-17
52859.85 2.9055e-17
52981.69 2.9193e-17
53103.82 2.9399e-17
53226.29 2.9742e-17
53348.98 3.0019e-17
53471.95 3.0299e-17
53595.21 3.058e-17
53718.75 3.0864e-17
53842.57 3.1149e-17
53966.68 3.1436e-17
54091.14 3.1726e-17
54215.83 3.2018e-17
54340.8 3.2311e-17
54466.06 3.2682e-17
54591.6 3.2981e-17
54717.44 3.3282e-17
54843.63 3.3585e-17
54970.05 3.3968e-17
55096.76 3.4276e-17
55223.76 3.4666e-17
55351.05 3.5059e-17
55478.64 3.5375e-17
55606.53 3.5693e-17
55734.76 3.6097e-17
55863.23 3.6421e-17
55992.0 3.6831e-17
56121.07 3.7246e-17
56250.43 3.7664e-17
56380.09 3.8e-17
56510.11 3.8426e-17
56640.38 3.8945e-17
56770.94 3.929e-17
56901.8 3.9729e-17
57032.96 4.0172e-17
57164.42 4.0712e-17
57296.19 4.126e-17
57428.33 4.1718e-17
57560.7 4.2181e-17
57693.38 4.2648e-17
57826.37 4.3219e-17
57959.66 4.3797e-17
58093.27 4.4382e-17
58227.18 4.4974e-17
58361.46 4.5574e-17
58495.98 4.6181e-17
58630.82 4.6795e-17
58765.97 4.7527e-17
58901.43 4.8269e-17
59253.7 4.7941e-17
59550.66 3.2727e-17
59847.63 5.1482e-17
60144.69 4.8004e-17
60441.66 5.3328e-17
60738.62 3.3243e-17
61035.59 2.6886e-17
61332.56 4.1217e-17
61629.63 6.1442e-17
61926.59 7.2349e-17
62223.56 7.0509e-17
62520.52 7.58e-17
62817.49 6.446e-17
63114.56 4.7379e-17
63411.52 6.0318e-17
63708.49 6.2325e-17
64005.46 5.5906e-17
64302.43 4.8779e-17
64599.49 4.3712e-17
64896.45 3.9773e-17
65193.42 2.2867e-17
65490.39 3.3074e-17
65787.35 3.9107e-17
66084.42 4.1356e-17
66381.38 4.4846e-17
66678.36 5.5941e-17
66975.31 3.6369e-17
67272.29 3.4183e-17
67569.35 3.7703e-17
67866.32 3.0704e-17
68163.28 9.9076e-18
68460.26 3.0826e-17
68757.22 4.7713e-17
69054.29 2.5957e-17
69351.25 2.9985e-17
69648.22 4.5359e-17
69945.18 3.9881e-17
70242.15 5.1848e-17
70539.21 4.3132e-17
70836.18 4.7628e-17
71133.15 4.253e-17
71430.11 4.4597e-17
71727.08 4.3153e-17
72024.14 5.3951e-17
72321.11 6.6262e-17
72618.08 6.5246e-17
72915.05 7.384e-17
73212.01 3.6825e-17
73509.08 6.4073e-17
73806.04 5.9026e-17
74103.01 6.1459e-17
74399.97 1.0131e-16
74993.91 5.8351e-17
75587.94 6.0658e-17
76181.87 5.8321e-17
76775.81 6.1759e-17
77369.84 6.6374e-17
77963.78 6.1683e-17
78557.81 4.7737e-17
79151.74 5.1215e-17
79745.68 4.7278e-17
80339.7 3.6639e-17
80933.64 2.9684e-17
81527.57 3.6113e-17
82121.6 4.1767e-17
82715.54 4.2731e-17
83309.47 3.5734e-17
83903.5 3.9164e-17
84497.43 4.2008e-17
85091.47 4.2195e-17
85685.4 4.5253e-17
86279.34 4.6244e-17
86873.37 3.9275e-17
87467.3 3.8096e-17
88061.24 3.3675e-17
88655.26 3.1725e-17
89249.2 3.5384e-17
89843.13 5.0692e-17
90437.16 3.8811e-17
91031.1 2.8861e-17
91625.13 2.7101e-17
92219.06 2.9393e-17
92813.0 2.2291e-17
93407.02 2.6357e-17
94000.96 2.6355e-17
94594.89 2.5162e-17
95188.92 2.8917e-17
95782.85 2.7227e-17
96376.78 2.9504e-17
96970.82 3.2014e-17
97564.76 2.9475e-17
98158.79 2.8678e-17
98752.72 3.3568e-17
99346.66 2.9722e-17
99940.69 3.088e-17
100534.62 2.877e-17
101128.56 2.8912e-17
101722.58 2.9574e-17
102316.52 3.0349e-17
102910.45 3.4108e-17
103504.48 3.7172e-17
104098.42 3.6757e-17
104692.45 9.108e-17
105286.38 1.1394e-16
105880.31 5.176e-17
106474.35 3.7053e-17
107068.28 3.1891e-17
107662.21 3.319e-17
108256.24 3.3821e-17
108850.18 3.6186e-17
109444.12 3.4753e-17
110038.14 3.6272e-17
110632.08 3.8643e-17
111226.11 4.4715e-17
111820.04 5.619e-17
112413.98 6.3733e-17
113008.01 6.1852e-17
113601.94 5.4951e-17
114195.88 4.8182e-17
114789.9 4.6576e-17
115383.84 4.7773e-17
115977.77 4.4438e-17
116571.8 4.1784e-17
117165.73 4.6579e-17
117759.77 4.1921e-17
118353.7 4.0635e-17
118947.63 4.6525e-17
119541.67 4.6478e-17
120135.6 4.4815e-17
120729.54 4.7072e-17
121323.56 4.5241e-17
121917.5 4.7164e-17
122511.44 4.8155e-17
123105.46 5.1847e-17
123699.4 5.1691e-17
124293.43 5.0489e-17
124887.36 5.077e-17
125481.3 5.1842e-17
126075.33 5.1814e-17
126669.26 5.4482e-17
127263.19 6.3324e-17
127857.23 7.9711e-17
128451.15 7.3832e-17
129045.08 5.4473e-17
129639.12 5.4682e-17
130233.05 5.1604e-17
130826.98 5.0654e-17
131421.02 5.3363e-17
132014.95 5.1474e-17
132608.99 5.4615e-17
133202.92 5.5551e-17
133796.85 5.3822e-17
134390.89 5.4925e-17
134984.82 5.361e-17
135578.75 5.6655e-17
136172.79 5.7903e-17
136766.72 5.3038e-17
137360.65 5.5133e-17
137954.68 5.7956e-17
138548.61 5.4744e-17
139142.65 5.7004e-17
139736.58 5.7009e-17
140330.51 5.4943e-17
140924.55 5.3865e-17
141518.48 4.9605e-17
142112.41 5.0343e-17
143154.93 5.5555e-17
143986.53 5.4743e-17
144818.11 5.3215e-17
145649.69 5.5685e-17
146481.18 5.5437e-17
147312.77 5.4852e-17
148144.35 5.5036e-17
148975.84 5.5778e-17
149807.42 5.6268e-17
150639.0 5.7595e-17
151470.49 5.6656e-17
152302.07 5.5586e-17
153133.67 5.6125e-17
153965.16 5.6898e-17
154796.75 9.221e-17
155628.33 1.7038e-16
156459.8 1.0005e-16
157291.4 6.0678e-17
158122.98 5.6888e-17
158954.56 5.8785e-17
159786.05 5.8586e-17
160617.65 5.6986e-17
161449.22 5.9199e-17
162280.72 6.3151e-17
163112.29 6.3139e-17
163943.87 6.2692e-17
164775.38 6.2449e-17
165606.95 6.2807e-17
166438.54 6.1685e-17
167270.02 6.2558e-17
168101.62 6.492e-17
168933.2 6.345e-17
169764.67 6.3181e-17
170596.27 6.5139e-17
171427.85 6.6989e-17
172259.44 6.9053e-17
173090.93 6.7179e-17
173922.52 7.0024e-17
174754.09 7.1565e-17
175585.6 7.0919e-17
176417.18 7.3081e-17
177248.76 7.3296e-17
178080.25 7.3242e-17
178911.82 7.9165e-17
179743.41 7.9404e-17
180574.9 8.0083e-17
181406.49 7.9072e-17
182238.07 8.0701e-17
183069.54 7.7279e-17
183901.14 7.6623e-17
184732.74 7.65e-17
185564.32 7.6782e-17
186395.8 9.2598e-17
187227.39 1.0993e-16
188058.96 9.5862e-17
188890.47 7.4149e-17
189722.05 7.2171e-17
190553.63 7.2503e-17
191385.12 7.3366e-17
192216.72 7.1822e-17
193048.29 7.19e-17
193879.78 7.3519e-17
194711.36 7.2091e-17
195542.94 7.3897e-17
196374.45 7.4992e-17
197206.01 7.6879e-17
198037.61 7.8806e-17
198869.19 7.8698e-17
199700.67 8.2469e-17
200532.26 8.5319e-17
202195.34 8.1957e-17
203858.5 8.7298e-17
205521.59 8.8548e-17
207184.65 8.2566e-17
208847.81 8.9115e-17
210510.88 9.0425e-17
212174.06 8.7266e-17
213837.14 9.0005e-17
215500.21 9.1755e-17
217163.39 9.2488e-17
218826.46 9.2282e-17
220489.52 9.2856e-17
222152.68 9.2742e-17
223815.77 9.0584e-17
225478.93 9.1638e-17
227142.01 9.4064e-17
228805.08 9.0414e-17
230468.26 8.9102e-17
232131.33 9.1346e-17
233794.4 9.2298e-17
235457.55 9.1762e-17
237120.64 9.1539e-17
238783.81 9.3131e-17
240446.88 9.1193e-17
242109.95 9.0807e-17
243773.13 9.2371e-17
245436.2 9.2134e-17
247099.27 9.2395e-17
248762.45 9.3057e-17
250425.53 9.399e-17
252088.68 9.72e-17
253751.75 9.8385e-17
255414.82 9.7615e-17
257078.0 9.884e-17
258741.07 1.0118e-16
260404.15 9.937e-17
262067.31 9.8866e-17
263730.38 9.976e-17
265393.55 9.9944e-17
267056.62 9.8252e-17
268719.72 9.9219e-17
270382.89 9.9025e-17
272045.93 9.9204e-17
273709.0 1.0042e-16
275372.2 9.9988e-17
277035.27 1.0139e-16
278698.43 1.0075e-16
280361.51 1.0129e-16
282024.58 1.001e-16
283687.74 1.0127e-16
285350.82 9.9407e-17
287013.89 1.0059e-16
288677.05 1.0081e-16
290340.12 1.0168e-16
292003.29 1.0164e-16
293666.39 1.0168e-16
295329.46 1.0191e-16
296992.63 1.0041e-16
298655.7 1.0079e-16
300318.77 1.0041e-16
301981.94 1.0124e-16
303645.01 1.0184e-16
305308.18 1.0241e-16
306971.25 1.045e-16
308634.32 1.0344e-16
310297.48 1.0406e-16
311960.59 1.0325e-16
313623.66 1.0441e-16
315286.82 1.0315e-16
316949.87 1.0218e-16
318613.06 1.0455e-16
320276.13 1.0804e-16
321939.21 1.0611e-16
323602.37 1.068e-16
325265.44 1.0697e-16
326928.52 1.0813e-16
328591.71 1.0772e-16
330254.78 1.0513e-16
331917.92 1.079e-16
333580.99 1.4209e-16
335244.09 1.3759e-16
336907.23 1.1629e-16
338570.3 1.0801e-16
340233.37 1.101e-16
341896.57 1.0723e-16
343559.61 1.0397e-16
