# col1 col2
# An Atlas of Galaxy Spectral Energy Distributions from the Ultraviolet to the Mid-Infrared
# Brown et al. (2014)
# http://dx.doi.org/10.5072/03/529D3551F0117
# 
# Column 1 : Restframe Wavelength (Angstrom)
# Column 2 : Flux per unit wavelength (ergs/s/cm^2/Angstrom)
# Column 3 : Observed wavelength (Angstrom)
# Column 4 : Source (0 = model, 1 = Optical Spectrum, 2 = Akari, 3 = Spitzer IRS)
# 
100.04 1.6738e-23
101.9 2.1613e-23
104.03 2.6224e-23
105.96 3.2487e-23
107.93 4.0337e-23
109.94 5.7904e-23
114.07 8.3889e-23
118.07 1.1527e-22
121.1 2.5044e-22
125.07 3.4018e-22
127.1 3.9238e-22
127.98 4.2238e-22
130.97 5.1488e-22
131.87 5.7373e-22
134.02 6.4969e-22
137.14 8.1415e-22
140.01 9.7209e-22
142.94 1.4181e-21
146.95 2.0216e-21
151.06 2.4872e-21
154.94 3.0458e-21
158.91 3.6958e-21
161.87 4.2433e-21
166.02 5.0782e-21
169.89 6.0077e-21
173.04 6.7874e-21
177.07 7.9379e-21
179.95 8.886e-21
182.04 9.5655e-21
185.85 1.1033e-20
191.05 1.3023e-20
194.16 1.4378e-20
198.22 1.6319e-20
201.91 1.8353e-20
205.19 2.0031e-20
209.97 2.2683e-20
215.85 2.6959e-20
219.86 2.9834e-20
222.92 3.2041e-20
227.07 3.5294e-20
230.23 9.4342e-20
233.97 1.3388e-19
239.97 1.6133e-19
246.13 1.6815e-19
251.86 1.8185e-19
257.13 1.7049e-19
260.11 1.9174e-19
263.73 2.031e-19
269.25 2.1121e-19
274.26 2.1863e-19
278.71 2.2579e-19
283.89 2.3319e-19
289.84 2.3589e-19
295.91 2.4701e-19
300.72 2.4701e-19
307.72 2.5984e-19
317.8 2.7778e-19
328.21 2.8954e-19
338.19 3.011e-19
347.66 3.124e-19
357.4 3.2487e-19
365.73 3.4018e-19
375.11 3.5132e-19
384.73 3.62e-19
394.6 3.8789e-19
404.72 4.1087e-19
414.15 4.3522e-19
421.85 4.5573e-19
429.69 4.8162e-19
440.71 5.3053e-19
450.98 5.777e-19
460.42 6.2331e-19
470.06 6.9455e-19
479.91 7.793e-19
489.95 8.6837e-19
500.21 9.9702e-19
506.01 3.3397e-18
511.87 1.158e-17
520.18 1.1687e-17
529.85 1.1987e-17
539.7 1.1369e-17
549.74 1.4181e-17
559.96 1.6777e-17
570.37 1.8395e-17
579.64 1.7771e-17
590.41 2.0451e-17
600.01 2.0592e-17
609.76 2.3373e-17
619.66 2.6467e-17
629.73 2.7971e-17
639.96 2.8887e-17
650.36 3.1312e-17
657.89 3.2412e-17
665.51 3.4491e-17
674.77 3.6033e-17
685.73 3.5621e-17
695.27 4.1755e-17
704.95 4.043e-17
716.4 4.7174e-17
726.37 4.8945e-17
734.78 5.1134e-17
745.0 5.4665e-17
755.36 5.7241e-17
765.87 5.9801e-17
774.74 6.349e-17
785.52 6.7718e-17
794.61 7.026e-17
805.67 7.2896e-17
815.0 7.5458e-17
824.43 8.0483e-17
835.9 7.4252e-17
845.58 8.5449e-17
855.37 8.8656e-17
865.28 9.3262e-17
875.3 9.7883e-17
885.43 1.0297e-16
895.69 1.0733e-16
903.97 1.0957e-16
914.44 1.5407e-16
925.03 8.5449e-16
935.74 1.7527e-15
944.4 3.4412e-15
955.34 4.5678e-15
964.18 5.6326e-15
975.34 1.7567e-15
984.36 6.0912e-15
995.76 5.9663e-15
1004.98 6.8819e-15
1014.28 6.2188e-15
1026.02 2.6285e-15
1035.51 5.2325e-15
1045.1 7.7394e-15
1054.77 7.6684e-15
1064.53 6.8502e-15
1074.38 7.4939e-15
1084.32 6.7097e-15
1094.35 7.6156e-15
1104.48 7.2729e-15
1114.7 7.2228e-15
1125.01 6.6789e-15
1135.42 7.374e-15
1145.92 6.9296e-15
1153.87 7.1237e-15
1164.54 7.2228e-15
1175.32 5.8171e-15
1186.2 6.9776e-15
1194.42 6.0354e-15
1205.47 4.9058e-15
1213.83 2.453e-15
1225.06 5.1845e-15
1236.39 6.557e-15
1244.96 6.8345e-15
1253.59 6.7407e-15
1265.19 6.4373e-15
1273.96 6.9136e-15
1285.75 6.9455e-15
1294.66 6.2908e-15
1303.64 6.3053e-15
1315.7 6.8031e-15
1324.82 6.5721e-15
1334.0 6.2619e-15
1346.34 6.5721e-15
1355.68 6.5119e-15
1365.07 6.2331e-15
1374.54 6.2331e-15
1384.06 6.2619e-15
1393.66 5.6455e-15
1406.55 5.7638e-15
1416.3 5.9938e-15
1426.12 5.9252e-15
1436.01 5.9389e-15
1442.63 6.0215e-15
1445.96 5.9801e-15
1455.98 5.898e-15
1466.07 5.7109e-15
1476.24 5.6716e-15
1486.47 5.6196e-15
1493.33 5.5938e-15
1503.68 5.4039e-15
1510.62 5.1251e-15
1517.6 5.2445e-15
1524.6 5.2204e-15
1535.17 4.8496e-15
1545.81 4.9058e-15
1556.53 4.7392e-15
1563.71 4.8496e-15
1574.55 4.9855e-15
1585.46 5.0085e-15
1596.45 5.0316e-15
1603.82 4.8945e-15
1614.94 4.8608e-15
1626.13 4.7831e-15
1633.64 4.872e-15
1644.96 4.8162e-15
1656.37 4.7174e-15
1664.01 4.8496e-15
1671.69 4.6527e-15
1675.54 4.8384e-15
1683.28 4.8273e-15
1694.95 4.6958e-15
1706.7 4.5783e-15
1714.57 4.4535e-15
1726.46 4.4127e-15
1734.43 4.5051e-15
1746.45 4.4127e-15
1754.51 4.4844e-15
1766.67 4.2925e-15
1774.83 4.3123e-15
1783.02 4.3222e-15
1795.38 4.3723e-15
1803.67 4.3622e-15
1816.17 4.1851e-15
1824.55 4.2141e-15
1832.97 4.1372e-15
1845.68 3.9238e-15
1854.2 3.8878e-15
1867.05 3.9238e-15
1875.67 4.0337e-15
1884.33 3.7993e-15
1893.02 3.6535e-15
1906.15 3.8169e-15
1914.94 3.6873e-15
1923.78 3.6117e-15
1937.12 3.6873e-15
1946.06 3.7558e-15
1955.04 3.5539e-15
1968.59 3.7043e-15
1977.68 3.7732e-15
1982.24 3.62e-15
1995.98 3.5376e-15
2005.19 3.5868e-15
2014.45 3.5621e-15
2023.75 3.6117e-15
2033.09 3.481e-15
2047.18 3.489e-15
2056.63 3.3474e-15
2066.12 3.3861e-15
2075.66 3.5132e-15
2085.24 3.4254e-15
2094.87 3.3091e-15
2104.53 3.3551e-15
2114.25 3.3474e-15
2124.01 3.3706e-15
2133.81 3.2863e-15
2143.66 3.2487e-15
2153.56 3.2863e-15
2163.5 3.2263e-15
2173.48 3.2041e-15
2183.51 3.1674e-15
2193.59 3.2041e-15
2203.72 3.1456e-15
2213.89 3.0882e-15
2224.11 3.0318e-15
2234.37 3.074e-15
2244.69 3.0318e-15
2255.05 2.9697e-15
2265.46 2.9765e-15
2275.92 2.9765e-15
2286.42 2.9765e-15
2296.97 2.8891e-15
2307.58 2.8987e-15
2312.9 2.8538e-15
2323.57 2.5577e-15
2334.3 2.7752e-15
2345.07 2.721e-15
2355.9 2.768e-15
2366.77 2.6954e-15
2377.7 2.7106e-15
2383.18 2.632e-15
2394.18 2.6713e-15
2405.23 2.6253e-15
2416.33 2.622e-15
2427.48 2.649e-15
2433.08 2.59e-15
2444.31 2.6167e-15
2455.59 2.6015e-15
2466.93 2.5685e-15
2472.61 2.5346e-15
2484.03 2.549e-15
2495.49 2.4424e-15
2507.01 2.5427e-15
2512.79 2.4464e-15
2518.58 2.4817e-15
2524.39 2.4377e-15
2536.04 2.418e-15
2547.75 2.3984e-15
2553.62 2.4387e-15
2565.41 2.4134e-15
2577.25 2.4328e-15
2583.19 2.4229e-15
2595.11 2.4033e-15
2607.09 2.3675e-15
2613.1 2.3471e-15
2625.16 2.3551e-15
2637.28 2.3523e-15
2643.36 2.4084e-15
2655.56 2.4e-15
2667.82 2.3426e-15
2673.97 2.3548e-15
2686.31 2.352e-15
2692.5 2.2997e-15
2704.93 2.3076e-15
2717.42 2.2681e-15
2723.68 2.2434e-15
2736.25 2.2668e-15
2742.56 2.176e-15
2755.22 2.1785e-15
2767.94 2.191e-15
2774.32 2.2177e-15
2787.12 2.1847e-15
2793.55 2.0401e-15
2806.44 2.0852e-15
2812.91 2.1748e-15
2825.89 2.1673e-15
2832.41 2.129e-15
2845.48 2.1168e-15
2852.04 2.089e-15
2865.21 2.1254e-15
2871.81 2.1121e-15
2885.07 2.1048e-15
2891.72 2.0964e-15
2911.76 2.1147e-15
2931.95 2.0751e-15
2952.27 2.0409e-15
2972.73 2.0352e-15
2993.34 2.0156e-15
3007.16 1.9996e-15
3028.0 1.9849e-15
3048.99 1.9658e-15
3070.12 1.9424e-15
3091.41 1.9238e-15
3112.83 1.9097e-15
3127.2 1.8816e-15
3148.88 1.8636e-15
3170.71 1.8543e-15
3192.69 1.8072e-15
3207.42 1.8137e-15
3229.65 1.7799e-15
3252.04 1.7875e-15
3267.05 1.7898e-15
3289.7 1.7728e-15
3312.5 1.7559e-15
3320.14 1.753e-15
3327.79 1.7623e-15
3335.46 1.7635e-15
3343.15 1.6621e-15
3350.86 1.7296e-15
3358.58 1.6566e-15
3366.33 1.6731e-15
3374.09 1.6399e-15
3381.86 1.6372e-15
3389.66 1.7037e-15
3397.47 1.7009e-15
3405.31 1.6518e-15
3413.16 1.6606e-15
3421.02 1.7082e-15
3428.91 1.6898e-15
3436.81 1.7027e-15
3444.74 1.6309e-15
3452.68 1.7247e-15
3460.64 1.6369e-15
3468.61 1.638e-15
3476.61 1.6316e-15
3484.63 1.614e-15
3492.66 1.6565e-15
3500.71 1.6349e-15
3508.78 1.5988e-15
3516.87 1.5816e-15
3524.98 1.6158e-15
3533.1 1.6432e-15
3541.25 1.6481e-15
3549.41 1.676e-15
3557.59 1.6542e-15
3565.79 1.6706e-15
3574.01 1.5965e-15
3582.25 1.5505e-15
3590.51 1.5093e-15
3598.79 1.5743e-15
3607.08 1.579e-15
3615.4 1.5947e-15
3623.73 1.6069e-15
3632.09 1.6955e-15
3640.46 1.6166e-15
3648.85 1.614e-15
3657.26 1.6376e-15
3665.69 1.6238e-15
3672.09 1.614e-15
3674.83 2.3041e-15
3677.58 2.066e-15
3680.32 1.8026e-15
3683.07 1.5667e-15
3685.81 1.1347e-15
3688.56 2.0488e-15
3691.3 2.0702e-15
3694.05 1.7957e-15
3696.79 1.6187e-15
3699.53 1.3733e-15
3702.28 1.3125e-15
3705.02 1.88e-15
3707.77 1.7417e-15
3710.51 1.6577e-15
3713.26 1.6056e-15
3716.0 1.9308e-15
3718.75 2.876e-15
3721.49 5.5816e-15
3724.24 1.07e-14
3726.98 1.5394e-14
3729.73 1.4855e-14
3732.47 9.8214e-15
3735.21 4.803e-15
3737.96 2.4681e-15
3740.7 1.9804e-15
3743.45 2.1389e-15
3746.19 1.7686e-15
3748.94 1.5779e-15
3751.68 1.6138e-15
3754.43 1.5416e-15
3757.17 1.6367e-15
3759.92 1.7103e-15
3762.66 1.77e-15
3765.41 2.1112e-15
3768.15 1.4797e-15
3770.9 1.9715e-15
3773.64 1.695e-15
3776.38 1.6037e-15
3779.13 1.582e-15
3781.87 1.7643e-15
3784.62 1.4059e-15
3787.36 1.4704e-15
3790.11 1.7078e-15
3792.85 2.0071e-15
3795.6 1.8286e-15
3798.34 2.172e-15
3801.09 2.4164e-15
3803.83 1.8868e-15
3806.58 1.4537e-15
3809.32 1.6247e-15
3812.07 1.6606e-15
3814.81 1.6562e-15
3817.55 1.4881e-15
3820.3 1.6212e-15
3823.04 2.1734e-15
3825.79 1.9843e-15
3828.53 1.361e-15
3831.28 1.556e-15
3834.02 2.124e-15
3836.77 1.8955e-15
3839.51 1.764e-15
3842.26 1.2351e-15
3845.0 1.5437e-15
3847.75 1.985e-15
3850.49 1.7166e-15
3853.24 1.7099e-15
3855.98 1.6419e-15
3858.72 1.4578e-15
3861.47 2.3403e-15
3864.21 3.9616e-15
3866.96 5.7223e-15
3869.7 6.2677e-15
3872.45 4.8614e-15
3875.19 3.0544e-15
3877.94 2.093e-15
3880.68 1.8045e-15
3883.43 2.0836e-15
3886.17 3.1538e-15
3888.92 3.724e-15
3891.66 3.4649e-15
3894.41 2.4481e-15
3897.15 1.7651e-15
3899.89 1.513e-15
3902.64 1.2823e-15
3905.38 1.3218e-15
3908.13 1.4847e-15
3910.87 1.5545e-15
3913.62 1.8223e-15
3916.36 1.9133e-15
3919.11 1.6662e-15
3921.85 1.6194e-15
3924.6 1.5506e-15
3927.34 1.4564e-15
3930.09 1.5367e-15
3932.83 1.4844e-15
3935.58 1.26e-15
3938.32 1.2532e-15
3941.06 1.3619e-15
3943.81 1.6025e-15
3946.55 1.2942e-15
3949.3 1.6618e-15
3952.04 1.707e-15
3954.79 1.4034e-15
3957.53 1.3864e-15
3960.28 1.5564e-15
3963.02 2.3684e-15
3965.77 3.6911e-15
3968.51 4.1126e-15
3971.26 3.7215e-15
3974.0 2.9095e-15
3976.75 2.1628e-15
3979.49 1.8339e-15
3982.23 1.5372e-15
3984.98 1.4218e-15
3987.72 1.6289e-15
3990.47 1.7119e-15
3993.21 1.6533e-15
3995.96 1.4999e-15
3998.7 2.0049e-15
4001.45 1.6654e-15
4004.19 1.5084e-15
4006.94 1.3568e-15
4009.68 1.655e-15
4012.43 1.6677e-15
4015.17 1.869e-15
4017.92 1.8039e-15
4020.66 1.8139e-15
4023.4 1.8811e-15
4026.15 1.638e-15
4028.89 1.8124e-15
4031.64 1.9229e-15
4034.38 1.7452e-15
4037.13 1.8526e-15
4039.87 1.6684e-15
4042.62 1.5611e-15
4045.36 1.3408e-15
4048.11 1.6582e-15
4050.85 1.756e-15
4053.6 1.8559e-15
4056.34 1.7231e-15
4059.09 1.7483e-15
4061.83 1.7974e-15
4064.57 1.7375e-15
4067.32 1.7842e-15
4070.06 1.7818e-15
4072.81 2.0805e-15
4075.55 1.8468e-15
4078.3 1.8144e-15
4081.04 1.6233e-15
4083.79 1.9177e-15
4086.53 1.7293e-15
4089.28 1.5348e-15
4092.02 1.511e-15
4094.77 2.0993e-15
4097.51 3.241e-15
4100.25 4.2037e-15
4103.0 4.2694e-15
4105.74 3.359e-15
4108.49 2.289e-15
4111.23 1.8603e-15
4113.98 1.6018e-15
4116.72 1.6706e-15
4119.47 1.9136e-15
4122.21 1.4523e-15
4124.96 1.4866e-15
4127.7 1.439e-15
4130.45 1.5909e-15
4133.19 1.656e-15
4135.94 1.464e-15
4138.68 1.5141e-15
4141.42 1.6219e-15
4144.17 1.647e-15
4146.91 1.8822e-15
4149.66 1.6739e-15
4152.4 1.8214e-15
4155.15 1.4039e-15
4157.89 1.6269e-15
4160.64 1.7223e-15
4163.38 1.5722e-15
4166.13 1.6089e-15
4168.87 1.4306e-15
4171.62 1.8522e-15
4174.36 1.5636e-15
4177.11 1.5111e-15
4179.85 1.6096e-15
4182.59 1.4615e-15
4185.34 1.5398e-15
4188.08 1.5428e-15
4190.83 1.9608e-15
4193.57 1.6529e-15
4196.32 1.6435e-15
4199.06 1.8119e-15
4201.81 1.6925e-15
4204.55 1.5775e-15
4207.3 1.4218e-15
4210.04 1.5063e-15
4212.79 1.494e-15
4215.53 1.5453e-15
4218.28 1.8022e-15
4221.02 1.6004e-15
4223.76 1.7768e-15
4226.51 1.462e-15
4229.25 1.336e-15
4232.0 1.6521e-15
4234.74 1.7698e-15
4237.49 1.5039e-15
4240.23 1.4938e-15
4242.98 1.5102e-15
4245.72 1.569e-15
4248.47 1.6168e-15
4251.21 1.3872e-15
4253.96 1.6598e-15
4256.7 1.5296e-15
4259.45 1.3692e-15
4262.19 1.227e-15
4264.93 1.4806e-15
4267.68 1.457e-15
4270.42 1.7255e-15
4273.17 1.5562e-15
4275.91 1.5003e-15
4278.66 1.5244e-15
4281.4 1.5178e-15
4284.15 1.5682e-15
4286.89 1.4676e-15
4289.64 1.6039e-15
4292.38 1.543e-15
4295.13 1.4724e-15
4297.87 1.5288e-15
4300.62 1.4674e-15
4303.36 1.298e-15
4306.1 1.5983e-15
4308.85 1.5082e-15
4311.59 1.5271e-15
4314.34 1.4233e-15
4317.08 1.39e-15
4319.83 1.365e-15
4322.57 1.2522e-15
4325.32 1.5881e-15
4328.06 1.4594e-15
4330.81 1.7314e-15
4333.55 2.5128e-15
4336.3 4.2743e-15
4339.04 6.0675e-15
4341.79 6.2054e-15
4344.53 4.7765e-15
4347.27 3.0474e-15
4350.02 2.0465e-15
4352.76 1.4187e-15
4355.51 1.6253e-15
4358.25 1.9492e-15
4361.0 2.2835e-15
4363.74 2.5695e-15
4366.49 2.4671e-15
4369.23 1.883e-15
4371.98 1.6138e-15
4374.72 1.5063e-15
4377.47 1.451e-15
4380.21 1.5171e-15
4382.96 1.6115e-15
4385.7 1.4977e-15
4388.44 1.4417e-15
4391.19 1.367e-15
4393.93 1.6058e-15
4396.68 1.6026e-15
4399.42 1.4876e-15
4402.17 1.6119e-15
4404.91 1.6574e-15
4407.66 1.4116e-15
4410.4 1.2196e-15
4413.15 1.3498e-15
4415.89 1.4574e-15
4418.64 1.6732e-15
4421.38 1.342e-15
4424.13 1.5045e-15
4426.87 1.3181e-15
4429.61 1.5503e-15
4432.36 1.7164e-15
4435.1 1.7007e-15
4437.85 1.5691e-15
4440.59 1.253e-15
4443.34 1.3581e-15
4446.08 1.379e-15
4448.83 1.5006e-15
4451.57 1.5525e-15
4454.32 1.4055e-15
4457.06 1.4338e-15
4459.81 1.6068e-15
4462.55 1.6341e-15
4465.29 1.6811e-15
4468.04 1.8569e-15
4470.78 2.0022e-15
4473.53 2.1596e-15
4476.27 1.9956e-15
4479.02 1.8334e-15
4481.76 1.7211e-15
4484.51 1.6204e-15
4487.25 1.7292e-15
4490.0 1.5971e-15
4492.74 1.4861e-15
4495.49 1.6009e-15
4498.23 1.5509e-15
4500.98 1.5008e-15
4503.72 1.6458e-15
4506.46 1.3552e-15
4509.21 1.5485e-15
4511.95 1.4802e-15
4514.7 1.3612e-15
4517.44 1.4395e-15
4520.19 1.5705e-15
4522.93 1.4267e-15
4525.68 1.5722e-15
4528.42 1.3019e-15
4531.17 1.5825e-15
4533.91 1.4992e-15
4536.66 1.5266e-15
4539.4 1.4747e-15
4542.15 1.2163e-15
4544.89 1.5372e-15
4547.63 1.5223e-15
4550.38 1.5146e-15
4553.12 1.3038e-15
4555.87 1.4203e-15
4558.61 1.5092e-15
4561.36 1.3192e-15
4564.1 1.5048e-15
4566.85 1.3697e-15
4569.59 1.7302e-15
4572.34 1.8418e-15
4575.08 1.6239e-15
4577.83 1.4143e-15
4580.57 1.5036e-15
4583.32 1.5617e-15
4586.06 1.4172e-15
4588.8 1.6419e-15
4591.55 1.6689e-15
4594.29 1.5658e-15
4597.04 1.5667e-15
4599.78 1.2884e-15
4602.53 1.5685e-15
4605.27 1.5133e-15
4608.02 1.6132e-15
4610.76 1.5346e-15
4613.51 1.3328e-15
4616.25 1.4462e-15
4619.0 1.6475e-15
4621.74 1.6812e-15
4624.49 1.5662e-15
4627.23 1.5969e-15
4629.97 1.4554e-15
4632.72 1.4831e-15
4635.46 1.3736e-15
4638.21 1.4518e-15
4640.95 1.4346e-15
4643.7 1.3379e-15
4646.44 1.6328e-15
4649.19 1.4247e-15
4651.93 1.6747e-15
4654.68 1.6114e-15
4657.42 2.0244e-15
4660.17 1.7284e-15
4662.91 1.5889e-15
4665.66 1.46e-15
4668.4 1.2768e-15
4671.14 1.3596e-15
4673.89 1.4782e-15
4676.63 1.3445e-15
4679.38 1.6284e-15
4682.12 1.6651e-15
4684.87 1.7329e-15
4687.61 1.6438e-15
4690.36 1.5662e-15
4693.1 1.7724e-15
4695.85 1.517e-15
4698.59 1.7099e-15
4701.34 1.393e-15
4704.08 1.4715e-15
4706.83 1.3333e-15
4709.57 1.7554e-15
4712.31 1.5349e-15
4715.06 1.5047e-15
4717.8 1.3505e-15
4720.55 1.4282e-15
4723.29 1.5092e-15
4726.04 1.4213e-15
4728.78 1.3578e-15
4731.53 1.453e-15
4734.27 1.2443e-15
4737.02 1.3458e-15
4739.76 1.5422e-15
4742.51 1.475e-15
4745.25 1.4509e-15
4748.0 1.55e-15
4750.74 1.391e-15
4753.48 1.3713e-15
4756.23 1.3442e-15
4758.97 1.3733e-15
4761.72 1.3421e-15
4764.46 1.4665e-15
4767.21 1.5894e-15
4769.95 1.6001e-15
4772.7 1.5238e-15
4775.44 1.5393e-15
4778.19 1.339e-15
4780.93 1.4844e-15
4783.68 1.4462e-15
4786.42 1.4343e-15
4789.17 1.4469e-15
4791.91 1.3717e-15
4794.65 1.4831e-15
4797.4 1.6487e-15
4800.14 1.4986e-15
4802.89 1.451e-15
4805.63 1.3583e-15
4808.38 1.4162e-15
4811.12 1.3211e-15
4813.87 1.2969e-15
4816.61 1.6352e-15
4819.36 1.4184e-15
4822.1 1.4922e-15
4824.85 1.458e-15
4827.59 1.4635e-15
4830.33 1.5211e-15
4833.08 1.5679e-15
4835.82 1.4066e-15
4838.57 1.3717e-15
4841.31 1.3379e-15
4844.06 1.2891e-15
4846.8 1.1929e-15
4849.55 1.5703e-15
4852.29 1.9259e-15
4855.04 3.719e-15
4857.78 7.9757e-15
4860.53 1.2367e-14
4863.27 1.2754e-14
4866.02 8.1759e-15
4868.76 3.6441e-15
4871.5 1.9381e-15
4874.25 1.5151e-15
4876.99 1.3754e-15
4879.74 1.3755e-15
4882.48 1.4273e-15
4885.23 1.2547e-15
4887.97 1.4155e-15
4890.72 1.3589e-15
4893.46 1.3669e-15
4896.21 1.3954e-15
4898.95 1.4019e-15
4901.7 1.4278e-15
4904.44 1.4368e-15
4907.19 1.3934e-15
4909.93 1.2419e-15
4912.67 1.3742e-15
4915.42 1.4111e-15
4918.16 1.3086e-15
4920.91 1.4725e-15
4923.65 1.5429e-15
4926.4 1.4981e-15
4929.14 1.5133e-15
4931.89 1.4236e-15
4934.63 1.3289e-15
4937.38 1.6793e-15
4940.12 1.6024e-15
4942.87 1.6255e-15
4945.61 1.5602e-15
4948.36 1.879e-15
4951.1 3.3818e-15
4953.84 8.2942e-15
4956.59 1.6367e-14
4959.33 2.1371e-14
4962.08 1.778e-14
4964.82 9.3505e-15
4967.57 3.5545e-15
4970.31 1.9854e-15
4973.06 1.5952e-15
4975.8 1.4205e-15
4978.55 1.4435e-15
4981.29 1.504e-15
4984.04 1.4357e-15
4986.78 1.4196e-15
4989.53 1.5168e-15
4992.27 1.8415e-15
4995.01 2.2651e-15
4997.76 4.6796e-15
5000.5 1.3891e-14
5003.25 3.5024e-14
5005.99 5.7901e-14
5008.74 5.8889e-14
5011.48 3.6802e-14
5014.23 1.4159e-14
5016.97 4.8222e-15
5019.72 2.3402e-15
5022.46 1.8059e-15
5025.21 1.5577e-15
5027.95 1.4891e-15
5030.7 1.3526e-15
5033.44 1.3704e-15
5036.18 1.3981e-15
5038.93 1.2433e-15
5041.67 1.1692e-15
5044.42 1.4059e-15
5047.16 1.2477e-15
5049.91 1.4458e-15
5052.65 1.3003e-15
5055.4 1.456e-15
5058.14 1.4581e-15
5060.89 1.3457e-15
5063.63 1.3006e-15
5066.38 1.3121e-15
5069.12 1.2071e-15
5071.87 1.3616e-15
5074.61 1.3131e-15
5077.35 1.3202e-15
5080.1 1.2776e-15
5082.84 1.2547e-15
5085.59 1.1272e-15
5088.33 1.3074e-15
5091.08 1.3749e-15
5093.82 1.35e-15
5096.57 1.425e-15
5099.31 1.2472e-15
5102.06 1.2344e-15
5104.8 1.2527e-15
5107.55 1.3493e-15
5110.29 1.2526e-15
5113.04 1.2582e-15
5115.78 1.3142e-15
5118.52 1.4171e-15
5121.27 1.3609e-15
5124.01 1.3415e-15
5126.76 1.3516e-15
5129.5 1.2475e-15
5132.25 1.2528e-15
5134.99 1.1689e-15
5137.74 1.2923e-15
5140.48 1.235e-15
5143.23 1.3687e-15
5145.97 1.3106e-15
5148.72 1.3731e-15
5151.46 1.1727e-15
5154.21 1.1269e-15
5156.95 1.3011e-15
5159.69 1.3177e-15
5162.44 1.2551e-15
5165.18 1.0517e-15
5167.93 9.6461e-16
5170.67 1.2374e-15
5173.42 1.3052e-15
5176.16 1.1579e-15
5178.91 1.244e-15
5181.65 1.1878e-15
5184.4 1.1971e-15
5187.14 1.2273e-15
5189.89 1.188e-15
5192.63 1.0332e-15
5195.37 1.07e-15
5198.12 1.115e-15
5200.86 1.2541e-15
5203.61 1.2752e-15
5206.35 1.169e-15
5209.1 1.1389e-15
5211.84 1.3517e-15
5214.59 1.3505e-15
5217.33 1.2181e-15
5220.08 1.2012e-15
5222.82 1.2409e-15
5225.57 1.2784e-15
5228.31 1.3145e-15
5231.06 1.0716e-15
5233.8 1.1517e-15
5236.54 1.3265e-15
5239.29 1.2263e-15
5242.03 1.2404e-15
5244.78 1.2974e-15
5247.52 1.3611e-15
5250.27 1.3909e-15
5253.01 1.1502e-15
5255.76 1.0483e-15
5258.5 1.1996e-15
5261.25 1.2651e-15
5263.99 1.2351e-15
5266.74 1.1082e-15
5269.48 1.0726e-15
5272.23 1.2715e-15
5274.97 1.325e-15
5277.71 1.3457e-15
5280.46 1.2237e-15
5283.2 1.0393e-15
5285.95 1.0911e-15
5288.69 1.3152e-15
5291.44 1.4179e-15
5294.18 1.3861e-15
5296.93 1.3394e-15
5299.67 1.3166e-15
5302.42 1.3131e-15
5305.16 1.2273e-15
5307.91 1.224e-15
5310.65 1.2565e-15
5313.4 1.2784e-15
5316.14 1.2428e-15
5318.88 1.09e-15
5321.63 1.4689e-15
5324.37 1.3824e-15
5327.12 1.3104e-15
5329.86 1.2139e-15
5332.61 1.2185e-15
5335.35 1.1764e-15
5338.1 1.2635e-15
5340.84 1.2293e-15
5343.59 1.1939e-15
5346.33 1.2046e-15
5349.08 1.2728e-15
5351.82 1.2277e-15
5354.57 1.2487e-15
5357.31 1.2089e-15
5360.05 1.1563e-15
5362.8 1.0745e-15
5365.54 1.1915e-15
5368.29 1.1177e-15
5371.03 1.2062e-15
5373.78 1.1076e-15
5376.52 1.2324e-15
5379.27 1.2958e-15
5382.01 1.2311e-15
5384.76 1.1595e-15
5387.5 1.3618e-15
5390.25 1.2581e-15
5392.99 1.1232e-15
5395.74 1.1524e-15
5398.48 1.1413e-15
5401.22 1.1683e-15
5403.97 1.1936e-15
5406.71 1.2233e-15
5409.46 1.1039e-15
5412.2 1.2858e-15
5414.95 1.3038e-15
5417.69 1.1467e-15
5420.44 1.1324e-15
5423.18 1.1409e-15
5425.93 1.2426e-15
5428.67 1.1502e-15
5431.42 1.2284e-15
5434.16 1.2774e-15
5436.91 1.3892e-15
5439.65 1.426e-15
5442.39 1.1106e-15
5445.14 1.062e-15
5447.88 1.2678e-15
5450.63 1.2102e-15
5453.37 1.0213e-15
5456.12 1.1253e-15
5458.86 1.3121e-15
5461.61 1.2296e-15
5464.35 1.245e-15
5467.1 1.1316e-15
5469.84 1.1686e-15
5472.59 1.2349e-15
5475.33 1.25e-15
5478.08 1.4307e-15
5480.82 1.4816e-15
5483.56 1.3287e-15
5486.31 1.2337e-15
5489.05 1.1513e-15
5491.8 1.1097e-15
5494.54 1.0584e-15
5497.29 1.3313e-15
5500.03 1.3209e-15
5502.78 1.2682e-15
5505.52 1.3145e-15
5508.27 1.183e-15
5511.01 1.2764e-15
5513.76 1.2673e-15
5516.5 1.2745e-15
5519.25 1.1875e-15
5521.99 1.142e-15
5524.73 1.1605e-15
5527.48 1.1253e-15
5530.22 1.0979e-15
5532.97 1.4263e-15
5535.71 1.355e-15
5538.46 1.2268e-15
5541.2 1.0419e-15
5543.95 1.2731e-15
5546.69 9.9565e-16
5549.44 1.3049e-15
5552.18 1.2436e-15
5554.93 1.1998e-15
5557.67 1.3031e-15
5560.41 1.3029e-15
5563.16 1.11e-15
5565.9 1.1075e-15
5568.65 1.193e-15
5571.39 1.1803e-15
5574.14 1.374e-15
5576.88 9.3259e-16
5579.63 1.284e-15
5582.37 1.2734e-15
5585.12 1.1457e-15
5587.86 1.1517e-15
5590.61 9.5836e-16
5593.35 1.261e-15
5596.1 1.0612e-15
5598.84 1.1375e-15
5601.58 1.0754e-15
5604.33 1.1071e-15
5607.07 1.3705e-15
5609.82 1.3188e-15
5612.56 1.1811e-15
5615.31 1.0164e-15
5618.05 1.0397e-15
5620.8 1.1401e-15
5623.54 1.1735e-15
5626.29 1.0536e-15
5629.03 1.1107e-15
5631.78 1.1574e-15
5634.52 1.093e-15
5637.27 1.0001e-15
5640.01 1.1961e-15
5642.75 1.0954e-15
5645.5 1.2236e-15
5648.24 1.0986e-15
5650.99 1.1842e-15
5653.73 1.0908e-15
5656.48 1.1411e-15
5659.22 1.0041e-15
5661.97 1.0625e-15
5664.71 9.9625e-16
5667.46 1.2368e-15
5670.2 1.1118e-15
5672.95 1.2664e-15
5675.69 1.2113e-15
5678.44 9.9151e-16
5681.18 9.7309e-16
5683.92 1.1483e-15
5686.67 9.9645e-16
5689.41 1.1837e-15
5692.16 9.6524e-16
5694.9 1.0674e-15
5697.65 1.0785e-15
5700.39 1.0568e-15
5703.14 1.13e-15
5705.88 1.0693e-15
5708.63 1.0691e-15
5711.37 1.2838e-15
5714.12 1.1983e-15
5716.86 1.1155e-15
5719.61 1.3025e-15
5722.35 1.0507e-15
5725.09 1.2193e-15
5727.84 1.1174e-15
5730.58 1.048e-15
5733.33 1.0552e-15
5736.07 1.2116e-15
5738.82 1.0889e-15
5741.56 9.772e-16
5744.31 1.136e-15
5747.05 1.1577e-15
5749.8 1.3625e-15
5752.54 1.3336e-15
5755.29 1.2982e-15
5758.03 1.2684e-15
5760.78 1.2254e-15
5763.52 1.1449e-15
5766.26 1.1674e-15
5769.01 1.305e-15
5771.75 1.3096e-15
5774.5 1.0695e-15
5777.24 1.3037e-15
5779.99 1.251e-15
5782.73 1.1889e-15
5785.48 1.1851e-15
5788.22 1.2616e-15
5790.97 1.1444e-15
5793.71 1.1622e-15
5796.46 1.0541e-15
5799.2 1.0927e-15
5801.95 1.0804e-15
5804.69 1.0791e-15
5807.43 1.1109e-15
5810.18 1.108e-15
5812.92 1.1553e-15
5815.67 1.1634e-15
5818.41 1.0306e-15
5821.16 1.0754e-15
5823.9 1.2699e-15
5826.65 1.3541e-15
5829.39 1.2841e-15
5832.14 1.142e-15
5834.88 1.1952e-15
5837.63 1.0828e-15
5840.37 1.0277e-15
5843.12 1.1229e-15
5845.86 1.1872e-15
5848.6 1.284e-15
5851.35 1.0895e-15
5854.09 1.0681e-15
5856.84 1.2513e-15
5859.58 1.2308e-15
5862.33 8.7282e-16
5865.07 9.9069e-16
5867.82 1.3102e-15
5870.56 1.576e-15
5873.31 2.2879e-15
5876.05 2.5222e-15
5878.8 1.991e-15
5881.54 1.4033e-15
5884.29 9.5129e-16
5887.03 8.1396e-16
5889.77 8.7567e-16
5892.52 9.8351e-16
5895.26 1.0403e-15
5898.01 1.1129e-15
5900.75 1.1327e-15
5903.5 1.1406e-15
5906.24 1.0451e-15
5908.99 1.0056e-15
5911.73 1.1478e-15
5914.48 9.4093e-16
5917.22 1.0208e-15
5919.97 1.1717e-15
5922.71 1.1713e-15
5925.45 9.8616e-16
5928.2 1.0718e-15
5930.94 1.0748e-15
5933.69 9.5735e-16
5936.43 1.0224e-15
5939.18 1.2174e-15
5941.92 1.2242e-15
5944.67 1.182e-15
5947.41 1.1623e-15
5950.16 1.1013e-15
5952.9 1.0494e-15
5955.65 1.0418e-15
5958.39 1.0381e-15
5961.14 1.0883e-15
5963.88 1.1475e-15
5966.62 1.1678e-15
5969.37 1.2231e-15
5972.11 1.009e-15
5974.86 1.0392e-15
5977.6 1.1143e-15
5980.35 1.2608e-15
5983.09 1.2219e-15
5985.84 1.1361e-15
5988.58 1.1387e-15
5991.33 1.1944e-15
5994.07 1.1135e-15
5996.82 1.0599e-15
5999.56 1.1923e-15
6002.31 1.1056e-15
6005.05 1.0174e-15
6007.79 1.1185e-15
6010.54 1.1004e-15
6013.28 1.0415e-15
6016.03 1.0382e-15
6018.77 9.6791e-16
6021.52 9.8736e-16
6024.26 1.2634e-15
6027.01 1.268e-15
6029.75 1.3613e-15
6032.5 1.2907e-15
6035.24 1.1353e-15
6037.99 1.0736e-15
6040.73 9.9404e-16
6043.48 1.1581e-15
6046.22 1.0469e-15
6048.96 1.1136e-15
6051.71 9.842e-16
6054.45 6.6367e-16
6057.2 1.3312e-15
6059.94 9.9517e-16
6062.69 1.2965e-15
6065.43 9.7944e-16
6068.18 1.1847e-15
6070.92 9.9749e-16
6073.67 1.2919e-15
6076.41 1.0747e-15
6079.16 1.0577e-15
6081.9 6.4228e-16
6084.65 1.1071e-15
6087.39 9.5306e-16
6090.13 1.207e-15
6092.88 7.4418e-16
6095.62 1.2222e-15
6098.37 9.1352e-16
6101.11 1.0567e-15
6103.86 7.958e-16
6106.6 1.0819e-15
6109.35 9.6855e-16
6112.09 1.0269e-15
6114.84 9.1221e-16
6117.58 1.0668e-15
6120.33 9.5111e-16
6123.07 1.0481e-15
6125.82 1.0071e-15
6128.56 9.0798e-16
6131.3 1.0645e-15
6134.05 1.0277e-15
6136.79 1.002e-15
6139.54 1.021e-15
6142.28 8.8578e-16
6145.03 1.0147e-15
6147.77 1.0396e-15
6150.52 8.2215e-16
6153.26 9.2556e-16
6156.01 1.0751e-15
6158.75 1.0305e-15
6161.5 1.2054e-15
6164.24 1.0916e-15
6166.99 9.787e-16
6169.73 1.0928e-15
6172.47 9.1556e-16
6175.22 8.4361e-16
6177.96 8.8561e-16
6180.71 1.0412e-15
6183.45 1.099e-15
6186.2 1.0173e-15
6188.94 1.1967e-15
6191.69 1.0937e-15
6194.43 1.2023e-15
6197.18 1.0226e-15
6199.92 1.0716e-15
6202.67 1.1417e-15
6205.41 1.0373e-15
6208.16 9.538e-16
6210.9 9.7844e-16
6213.64 8.6768e-16
6216.39 9.3723e-16
6219.13 1.1332e-15
6221.88 1.0963e-15
6224.62 1.0599e-15
6227.37 8.8759e-16
6230.11 9.7654e-16
6232.86 1.0352e-15
6235.6 9.173e-16
6238.35 9.0136e-16
6241.09 1.1957e-15
6243.84 1.0771e-15
6246.58 1.1464e-15
6249.33 1.0825e-15
6252.07 1.0085e-15
6254.81 9.6765e-16
6257.56 9.7954e-16
6260.3 9.3746e-16
6263.05 1.092e-15
6265.79 9.5515e-16
6268.54 1.1115e-15
6271.28 1.2722e-15
6274.03 1.0347e-15
6276.77 8.541e-16
6279.52 8.4169e-16
6282.26 8.9218e-16
6285.01 1.0828e-15
6287.75 1.8166e-15
6290.49 3.8536e-16
6293.24 9.4414e-16
6295.98 2.0286e-15
6298.73 2.2077e-15
6301.47 1.4436e-15
6304.22 1.3303e-15
6306.96 1.3003e-15
6309.71 1.421e-15
6312.45 1.4598e-15
6315.2 1.2614e-15
6317.94 1.1125e-15
6320.69 9.0146e-16
6323.43 9.2897e-16
6326.18 9.9772e-16
6328.92 9.9446e-16
6331.66 1.1409e-15
6334.41 1.0461e-15
6337.15 1.0432e-15
6339.9 1.0855e-15
6342.64 9.7899e-16
6345.39 1.101e-15
6348.13 1.0248e-15
6350.88 9.7978e-16
6353.62 1.1447e-15
6356.37 8.739e-16
6359.11 1.0411e-15
6361.86 6.9306e-16
6364.6 1.192e-15
6367.35 1.074e-15
6370.09 1.0486e-15
6372.83 1.0394e-15
6375.58 8.6949e-16
6378.32 1.2809e-15
6381.07 1.2295e-15
6383.81 8.7755e-16
6386.56 1.2469e-15
6389.3 1.0048e-15
6392.05 8.4241e-16
6394.79 1.0777e-15
6397.54 9.5761e-16
6400.28 1.0343e-15
6403.03 1.0026e-15
6405.77 1.1199e-15
6408.52 1.0491e-15
6411.26 9.8739e-16
6414.0 8.9268e-16
6416.75 1.0728e-15
6419.49 1.071e-15
6422.24 9.7767e-16
6424.98 1.0323e-15
6427.73 1.0728e-15
6430.47 1.1461e-15
6433.22 1.0247e-15
6435.96 9.7153e-16
6438.71 1.0907e-15
6441.45 1.1008e-15
6444.2 1.024e-15
6446.94 1.0091e-15
6449.69 1.1639e-15
6452.43 1.2986e-15
6455.17 1.1343e-15
6457.92 8.8247e-16
6460.66 8.7021e-16
6463.41 7.9644e-16
6466.15 7.8742e-16
6468.9 8.4937e-16
6471.64 8.4079e-16
6474.39 8.8403e-16
6477.13 1.0019e-15
6479.88 1.0249e-15
6482.62 9.2239e-16
6485.37 9.6001e-16
6488.11 9.6598e-16
6490.86 7.8236e-16
6493.6 7.4553e-16
6496.34 9.2321e-16
6499.09 1.11e-15
6501.83 1.0393e-15
6504.58 1.0855e-15
6507.32 9.2995e-16
6510.07 1.0612e-15
6512.81 9.918e-16
6515.56 8.8573e-16
6518.3 1.3099e-15
6521.05 1.1541e-15
6523.79 1.0732e-15
6526.54 1.1019e-15
6529.28 8.568e-16
6532.03 1.0289e-15
6534.77 9.5e-16
6537.51 8.8101e-16
6540.26 9.1307e-16
6543.0 1.1763e-15
6545.75 1.204e-15
6548.49 1.5259e-15
6551.24 1.9374e-15
6553.98 3.1401e-15
6556.73 7.605e-15
6559.47 2.0956e-14
6562.22 3.5085e-14
6564.96 3.4134e-14
6567.71 1.9269e-14
6570.45 5.8336e-15
6573.2 2.4041e-15
6575.94 1.5248e-15
6578.68 1.1662e-15
6581.43 1.8177e-15
6584.17 1.7308e-15
6586.92 1.9912e-15
6589.66 1.0633e-15
6592.41 9.1486e-16
6595.15 9.8498e-16
6597.9 8.2603e-16
6600.64 9.6771e-16
6603.39 9.9455e-16
6606.13 9.2632e-16
6608.88 1.1006e-15
6611.62 9.2986e-16
6614.37 9.3094e-16
6617.11 1.0846e-15
6619.85 1.0064e-15
6622.6 1.1204e-15
6625.34 1.0489e-15
6628.09 1.0077e-15
6630.83 9.2038e-16
6633.58 8.0852e-16
6636.32 9.3078e-16
6639.07 9.1108e-16
6641.81 9.9593e-16
6644.56 1.0933e-15
6647.3 1.0608e-15
6650.05 1.0032e-15
6652.79 9.1468e-16
6655.53 1.0838e-15
6658.28 1.0053e-15
6661.02 1.0367e-15
6663.77 9.3316e-16
6666.51 9.1192e-16
6669.26 9.932e-16
6672.0 1.0371e-15
6674.75 1.0839e-15
6677.49 1.2748e-15
6680.24 1.2521e-15
6682.98 1.1096e-15
6685.73 1.0308e-15
6688.47 8.0501e-16
6691.22 9.7668e-16
6693.96 1.1635e-15
6696.7 1.1061e-15
6699.45 1.0253e-15
6702.19 9.6115e-16
6704.94 1.1128e-15
6707.68 1.219e-15
6710.43 1.408e-15
6713.17 2.0857e-15
6715.92 2.819e-15
6718.66 2.6803e-15
6721.41 1.9282e-15
6724.15 1.5045e-15
6726.9 1.6029e-15
6729.64 2.2463e-15
6732.39 2.1318e-15
6735.13 1.8867e-15
6737.87 1.4369e-15
6740.62 1.2149e-15
6743.36 7.8029e-16
6746.11 9.81e-16
6748.85 9.7952e-16
6751.6 1.1136e-15
6754.34 1.2129e-15
6757.09 9.8771e-16
6759.83 8.5502e-16
6762.58 9.8101e-16
6765.32 1.3762e-15
6768.07 8.051e-16
6770.81 8.5162e-16
6773.56 6.0104e-16
6776.3 9.6707e-16
6779.04 7.0514e-16
6781.79 1.0017e-15
6784.53 6.7063e-16
6787.28 1.2016e-15
6790.02 6.8548e-16
6792.77 7.9965e-16
6795.51 8.1983e-16
6798.26 9.7188e-16
6801.0 8.5907e-16
6803.75 7.6705e-16
6806.49 9.2221e-16
6809.24 9.5494e-16
6811.98 9.0108e-16
6814.73 1.0808e-15
6825.84 9.4963e-16
6841.57 9.4947e-16
6857.35 9.406e-16
6873.16 9.2967e-16
6889.0 9.2524e-16
6904.88 9.2721e-16
6920.8 9.2705e-16
6936.75 9.2688e-16
6952.74 9.2886e-16
6968.77 9.2018e-16
6984.83 9.053e-16
7000.94 9.0932e-16
7017.07 9.1335e-16
7033.25 9.0482e-16
7049.46 9.2148e-16
7065.71 9.0658e-16
7082.0 9.106e-16
7098.33 8.9588e-16
7114.69 8.9572e-16
7131.09 8.9555e-16
7147.53 8.8923e-16
7164.01 8.8498e-16
7180.53 8.489e-16
7197.08 8.3325e-16
7213.67 8.3887e-16
7230.29 8.6023e-16
7246.97 8.4827e-16
7263.67 8.5991e-16
7280.41 8.4406e-16
7297.2 8.3233e-16
7314.02 8.5352e-16
7330.88 8.6523e-16
7347.78 8.7508e-16
7364.72 8.5895e-16
7381.69 8.6674e-16
7398.71 8.5272e-16
7415.77 8.4864e-16
7432.86 8.5239e-16
7450.0 8.4832e-16
7467.17 8.5207e-16
7484.38 8.5191e-16
7501.64 8.3427e-16
7518.93 8.3796e-16
7536.26 8.4555e-16
7553.64 8.4151e-16
7571.05 8.3748e-16
7588.5 8.3732e-16
7606.0 8.1622e-16
7623.53 8.2361e-16
7641.11 8.0656e-16
7658.72 8.1386e-16
7676.37 7.4725e-16
7694.07 7.9137e-16
7711.81 7.6965e-16
7729.58 7.8924e-16
7747.4 7.8908e-16
7765.26 7.8169e-16
7783.16 7.4122e-16
7801.1 7.7422e-16
7819.09 7.7763e-16
7837.11 7.7569e-16
7855.18 7.8451e-16
7873.29 7.7896e-16
7891.44 7.7701e-16
7909.63 7.6796e-16
7927.86 7.5379e-16
7946.14 7.5017e-16
7964.45 7.5175e-16
7982.82 7.5855e-16
8001.22 7.5144e-16
8019.66 7.4955e-16
8038.15 7.4768e-16
8056.68 7.4238e-16
8075.25 7.5082e-16
8093.87 7.3866e-16
8112.53 7.4534e-16
8131.23 7.4518e-16
8149.97 7.2639e-16
8168.76 7.0645e-16
8187.59 7.0467e-16
8206.46 6.8375e-16
8225.38 7.1912e-16
8244.35 7.1238e-16
8263.35 7.238e-16
8282.4 7.0231e-16
8301.49 7.0702e-16
8320.63 7.0687e-16
8339.81 6.9702e-16
8359.04 7.1475e-16
8378.3 7.0968e-16
8397.62 6.7915e-16
8416.98 7.0448e-16
8436.38 7.0109e-16
8455.83 6.7559e-16
8475.32 6.6771e-16
8494.86 7.0712e-16
8514.44 6.767e-16
8534.07 7.0194e-16
8553.74 5.4476e-16
8573.46 7.0163e-16
8593.22 6.8867e-16
8613.04 6.713e-16
8632.89 6.8678e-16
8652.79 6.8505e-16
8672.73 5.0075e-16
8692.73 6.5694e-16
8712.77 6.6593e-16
8732.85 6.7972e-16
8752.99 6.46e-16
8773.16 6.5937e-16
8793.38 6.7148e-16
8813.66 6.4556e-16
8833.97 6.4097e-16
8854.34 6.4675e-16
8874.75 5.8835e-16
8895.21 6.4496e-16
8915.71 6.5228e-16
8936.26 6.3144e-16
8956.87 6.3421e-16
8977.51 6.2106e-16
8998.21 5.6889e-16
9018.96 5.8067e-16
9039.74 6.3508e-16
9060.58 6.5422e-16
9081.47 6.1182e-16
9102.41 6.1875e-16
9123.39 6.374e-16
9144.42 5.8656e-16
9165.5 5.6651e-16
9186.63 5.9718e-16
9207.8 6.0954e-16
9229.03 5.8735e-16
9250.31 5.9264e-16
9271.63 5.9523e-16
9293.01 5.9921e-16
9314.43 6.074e-16
9335.9 6.0586e-16
9357.42 6.0154e-16
9378.99 5.9725e-16
9400.61 5.9711e-16
9422.28 5.9285e-16
9444.0 5.8727e-16
9465.77 5.8713e-16
9487.59 5.8428e-16
9509.47 5.7745e-16
9531.39 5.6547e-16
9553.36 5.3003e-16
9575.38 5.6259e-16
9597.46 5.6896e-16
9619.58 5.662e-16
9641.75 5.6087e-16
9663.98 5.5815e-16
9686.26 5.593e-16
9708.59 5.5531e-16
9730.97 5.5261e-16
9753.4 5.4993e-16
9775.88 5.4853e-16
9798.42 5.4336e-16
9821.01 5.4447e-16
9843.65 5.4058e-16
9866.34 5.3672e-16
9889.09 5.3412e-16
9911.88 5.3153e-16
9934.73 5.3017e-16
9957.63 5.2759e-16
9980.59 5.2503e-16
10026.65 5.0811e-16
10072.94 4.9628e-16
10119.43 5.0524e-16
10166.14 4.9919e-16
10236.61 4.9535e-16
10283.86 4.9167e-16
10307.56 4.8703e-16
10499.19 4.6624e-16
10694.4 4.4433e-16
10893.22 4.1851e-16
11095.74 4.1182e-16
11302.02 3.9419e-16
11512.14 3.8257e-16
11699.19 3.6788e-16
11889.3 3.5376e-16
12110.34 3.4096e-16
12307.11 3.3091e-16
12507.09 3.2041e-16
12710.31 3.0953e-16
12887.13 2.9971e-16
13096.53 2.9155e-16
13309.33 2.823e-16
13494.48 2.7587e-16
13713.75 2.6774e-16
13904.53 2.6104e-16
14097.96 2.5393e-16
14294.08 2.4757e-16
14492.93 2.425e-16
14694.55 2.3698e-16
14898.96 2.3212e-16
15106.22 2.2736e-16
15316.37 2.2372e-16
15493.73 2.2167e-16
15709.28 2.1464e-16
15891.18 2.0831e-16
16112.25 2.064e-16
16298.81 2.0404e-16
16487.55 1.9575e-16
16716.91 1.9086e-16
16910.49 1.8353e-16
17106.31 1.7894e-16
17304.38 1.7049e-16
17504.76 1.67e-16
17707.46 1.617e-16
17912.5 1.5657e-16
18119.91 1.4918e-16
18287.58 1.4612e-16
18499.34 1.4148e-16
18713.54 1.3449e-16
18886.7 1.3204e-16
19105.4 1.2844e-16
19282.17 1.2408e-16
19505.45 1.185e-16
19685.94 1.1607e-16
19913.9 1.1264e-16
20098.15 1.0983e-16
20284.12 1.0585e-16
20519.01 1.0344e-16
20708.85 9.9932e-17
20900.48 9.6985e-17
21093.85 9.456e-17
21289.04 9.1771e-17
21486.04 8.927e-17
21684.83 8.5449e-17
21885.49 8.4083e-17
22087.97 8.1603e-17
22292.36 7.9196e-17
22498.64 7.7038e-17
22706.8 7.4939e-17
22916.92 6.9776e-17
23075.76 6.8819e-17
23289.28 6.3053e-17
23504.79 6.0772e-17
23722.26 6.0772e-17
23886.71 5.6716e-17
24107.71 5.5553e-17
24274.83 5.5043e-17
24499.43 5.2204e-17
24726.13 5.1964e-17
24897.51 4.8384e-17
25127.9 4.7831e-17
25302.06 4.7066e-17
25477.46 4.6101e-17
25713.19 4.5573e-17
25891.44 4.4331e-17
26070.89 4.3522e-17
26312.14 4.2238e-17
26494.51 4.1851e-17
26678.18 4.0617e-17
26925.04 4.006e-17
27111.66 3.9328e-17
27299.58 3.8433e-17
27488.83 3.7472e-17
27679.36 3.6703e-17
27871.24 3.6033e-17
28129.11 3.5213e-17
28324.1 3.4491e-17
28520.42 3.3706e-17
28718.14 3.2637e-17
28917.19 3.2189e-17
29117.65 3.1456e-17
29319.47 3.074e-17
29522.72 3.004e-17
29727.34 2.9424e-17
29933.42 2.8688e-17
30071.58 2.81e-17
30280.01 2.7271e-17
30489.92 2.6774e-17
30701.25 2.6285e-17
30914.08 2.5687e-17
31128.35 2.5102e-17
31272.02 2.4587e-17
31488.81 2.4027e-17
31707.06 2.3535e-17
31926.86 2.3052e-17
32074.22 2.2527e-17
32296.57 2.2065e-17
32520.42 2.1662e-17
32670.51 2.1267e-17
32897.0 2.0975e-17
33125.01 2.0687e-17
33277.9 1.9939e-17
33508.59 1.944e-17
33663.25 1.8954e-17
33896.61 1.8523e-17
34131.55 1.8143e-17
34289.09 1.7771e-17
34526.79 1.7406e-17
34686.14 1.7049e-17
34926.6 1.67e-17
35087.8 1.6357e-17
35331.0 1.5985e-17
35494.1 1.5693e-17
35740.12 1.5371e-17
35905.12 1.5056e-17
36070.83 1.4747e-17
36320.85 1.4478e-17
36488.53 1.4148e-17
36741.43 1.3922e-17
36911.01 1.3574e-17
37081.42 1.3357e-17
37338.43 1.3083e-17
37510.76 1.2726e-17
37683.94 1.261e-17
37857.87 1.238e-17
38120.26 1.2126e-17
38296.25 1.1932e-17
38473.0 1.1714e-17
38739.71 1.15e-17
38918.51 1.129e-17
39098.14 1.1033e-17
39278.59 1.0882e-17
39459.92 1.0683e-17
39733.43 1.0488e-17
39916.86 1.0273e-17
40101.09 1.0086e-17
40286.18 9.9244e-18
40472.12 9.6985e-18
40658.96 9.6096e-18
40940.77 9.456e-18
41129.73 9.3048e-18
41319.61 9.1349e-18
41510.32 8.9889e-18
41701.91 8.8045e-18
41894.43 8.6837e-18
42087.79 8.5449e-18
42282.04 8.4276e-18
42477.24 8.2738e-18
42673.29 8.1603e-18
42870.25 7.847e-18
43068.16 7.5632e-18
43266.94 7.5632e-18
43466.64 7.2561e-18
43667.26 7.091e-18
43868.85 6.9937e-18
44071.32 6.7252e-18
44274.73 6.6789e-18
44479.13 6.557e-18
44684.42 6.3344e-18
44890.66 6.349e-18
45097.9 6.2188e-18
45306.05 6.0493e-18
45515.16 6.0354e-18
45725.23 5.9663e-18
45936.32 5.777e-18
46148.34 5.8037e-18
46254.71 5.6978e-18
46468.25 5.6067e-18
46682.73 5.5681e-18
46898.19 5.517e-18
47114.64 5.4413e-18
47332.15 5.4413e-18
47550.61 5.342e-18
47660.22 5.293e-18
47880.24 5.2325e-18
48101.23 5.137e-18
48323.24 5.1488e-18
48546.28 5.0782e-18
48658.23 4.997e-18
48882.81 4.9626e-18
49108.43 4.9058e-18
49335.09 4.8496e-18
49448.86 4.7941e-18
49677.09 4.7721e-18
49906.37 4.7174e-18
50136.77 4.685e-18
50252.34 4.642e-18
50484.27 4.5678e-18
50717.28 4.5363e-18
50834.19 4.5155e-18
50951.42 4.5051e-18
51068.87 4.4638e-18
51186.59 4.4331e-18
51304.57 4.4026e-18
51422.83 4.3823e-18
51541.37 4.3723e-18
51660.23 4.3723e-18
51779.31 4.3622e-18
51898.67 4.3222e-18
52018.3 4.3024e-18
52138.2 4.2727e-18
52258.38 4.2531e-18
52378.84 4.2336e-18
52499.64 4.2238e-18
52620.65 4.2141e-18
52741.95 4.2141e-18
52863.52 4.1755e-18
52985.38 4.1372e-18
53107.51 4.1182e-18
53229.99 4.1087e-18
53352.69 4.0993e-18
53475.67 4.0804e-18
53598.93 4.0617e-18
53722.48 4.043e-18
53846.32 4.0337e-18
53970.43 4.0152e-18
54094.9 4.006e-18
54219.59 3.9784e-18
54344.57 3.9601e-18
54469.84 3.951e-18
54595.4 3.9419e-18
54721.24 3.9238e-18
54847.38 3.9058e-18
54973.87 3.8968e-18
55100.59 3.8789e-18
55227.6 3.8789e-18
55354.9 3.8789e-18
55482.5 3.8522e-18
55610.39 3.8257e-18
55738.64 3.8345e-18
55867.12 3.8169e-18
55995.9 3.7993e-18
56124.97 3.7906e-18
56254.34 3.7819e-18
56384.01 3.7645e-18
56513.98 3.7645e-18
56644.31 3.7558e-18
56774.88 3.7386e-18
56905.75 3.7214e-18
57036.92 3.7214e-18
57168.4 3.7214e-18
57300.17 3.7128e-18
57432.32 3.7043e-18
57564.7 3.6958e-18
57697.4 3.6873e-18
57830.39 3.6788e-18
57963.69 3.6788e-18
58097.31 3.6703e-18
58231.22 3.6619e-18
58365.51 3.6619e-18
58500.05 3.6619e-18
58634.9 3.6619e-18
58770.06 3.6535e-18
58905.52 3.6535e-18
59013.32 4.092e-18
59315.13 3.8918e-18
59617.04 4.7783e-18
59918.86 4.4193e-18
60220.67 3.2247e-18
60522.49 5.0135e-18
60824.3 5.5515e-18
61126.21 3.8769e-18
61428.02 6.1516e-18
61729.83 5.6443e-18
62031.65 7.6971e-18
62333.46 8.6965e-18
62635.38 5.7294e-18
62937.19 7.3214e-18
63239.0 6.0908e-18
63540.81 7.0519e-18
63842.62 4.8804e-18
64144.54 4.8703e-18
64446.35 4.4286e-18
64748.17 2.8105e-18
65049.98 4.6662e-18
65351.79 2.573e-18
65653.7 4.7308e-18
65955.51 3.5461e-18
66257.32 3.119e-18
66559.14 3.5948e-18
66860.96 3.9305e-18
67162.87 2.6511e-18
67464.68 2.1497e-18
67766.5 2.4121e-18
68068.3 2.6001e-18
68370.12 3.2623e-18
68672.03 3.1091e-18
68973.85 4.8545e-18
69275.66 2.8653e-18
69577.48 2.8952e-18
69879.29 3.0266e-18
70181.2 3.3944e-18
70483.01 2.1529e-18
70784.82 2.5275e-18
71086.63 3.0526e-18
71388.45 2.8885e-18
71690.36 4.4936e-18
71992.18 4.0251e-18
72293.99 5.8412e-18
72595.8 5.6924e-18
72897.61 5.8444e-18
73199.53 5.6592e-18
73501.34 5.2974e-18
73803.16 3.42e-18
74104.97 4.8904e-18
74406.78 7.3133e-18
74708.69 7.5807e-18
75010.5 7.8071e-18
75312.31 5.745e-18
75614.13 3.6333e-18
76217.76 4.8253e-18
76821.48 5.2775e-18
77425.1 4.4652e-18
78028.73 3.9235e-18
78632.46 4.7664e-18
79236.09 3.8142e-18
79839.81 3.2451e-18
80443.44 3.6097e-18
81047.07 3.2073e-18
81650.78 3.4245e-18
82254.41 3.3136e-18
82858.04 2.6363e-18
83461.76 3.0876e-18
84065.39 3.1848e-18
84669.01 3.283e-18
85272.75 2.7963e-18
85876.37 3.2551e-18
86480.1 3.5948e-18
87083.72 3.5878e-18
87687.35 2.5641e-18
88291.08 2.0166e-18
88894.7 2.2235e-18
89498.33 5.5207e-18
90102.05 7.0286e-18
90705.68 2.807e-18
91309.3 2.3471e-18
91913.03 1.9234e-18
92516.66 2.0151e-18
93120.38 2.2025e-18
93724.0 1.6524e-18
94327.63 2.4371e-18
94931.35 2.0769e-18
95534.98 1.8897e-18
96138.61 1.9583e-18
96742.34 2.3515e-18
97345.96 2.7689e-18
97949.58 2.006e-18
98553.31 1.8968e-18
99156.94 1.7452e-18
99760.67 2.0903e-18
100364.29 1.9777e-18
100967.92 1.8994e-18
101571.65 2.6715e-18
102175.27 2.0208e-18
102778.9 1.8442e-18
103382.62 2.0591e-18
103986.25 2.8342e-18
104589.87 1.8875e-17
105193.59 2.9131e-17
105797.22 1.1367e-17
106400.96 1.5728e-18
107004.57 1.9991e-18
107608.2 2.134e-18
108211.93 2.4013e-18
108815.56 1.608e-18
109419.18 1.9192e-18
110022.9 2.5414e-18
110626.53 2.8234e-18
111230.17 2.6433e-18
111833.88 3.7777e-18
112437.51 4.9017e-18
113041.24 3.7044e-18
113644.86 3.7447e-18
114248.49 3.1583e-18
114852.21 2.5883e-18
115455.84 2.6693e-18
116059.47 2.6067e-18
116663.18 2.2625e-18
117266.81 2.2029e-18
117870.44 2.3729e-18
118474.16 2.2859e-18
119077.79 2.4141e-18
119681.52 2.2421e-18
120285.15 2.2968e-18
120888.77 2.1453e-18
121492.5 2.3052e-18
122096.12 2.241e-18
122699.76 2.5625e-18
123303.47 3.0748e-18
123907.1 3.1406e-18
124510.73 2.3843e-18
125114.45 2.5152e-18
125718.08 2.5915e-18
126321.8 2.7123e-18
126925.43 2.9601e-18
127529.06 3.3784e-18
128132.78 4.6495e-18
128736.4 3.8596e-18
129340.04 2.6241e-18
129943.77 2.6119e-18
130547.38 2.2465e-18
131151.01 2.2053e-18
131754.74 2.3984e-18
132358.36 1.9456e-18
132961.98 1.9446e-18
133565.71 2.4145e-18
134169.34 2.1007e-18
134773.07 2.2502e-18
135376.69 2.3359e-18
135980.32 2.2469e-18
136584.05 2.2618e-18
137187.67 2.4074e-18
137791.29 2.3631e-18
138395.02 2.226e-18
138998.65 2.2188e-18
139602.27 2.2721e-18
140206.0 2.3093e-18
140809.63 2.3755e-18
141413.36 2.1966e-18
142016.98 2.0221e-18
142620.6 2.0137e-18
143224.33 2.6227e-18
143827.96 2.4899e-18
144431.58 2.2156e-18
145491.11 2.3264e-18
146336.28 1.9827e-18
147181.44 2.2218e-18
148026.59 2.2126e-18
148871.65 2.3148e-18
149716.8 2.5614e-18
150561.95 2.4173e-18
151407.01 1.9828e-18
152252.17 2.1599e-18
153097.32 2.2552e-18
153942.38 2.5417e-18
154787.53 5.4009e-18
155632.7 1.0948e-17
156477.76 8.1073e-18
157322.91 2.1286e-18
158168.07 2.6497e-18
159013.11 2.5751e-18
159858.28 2.3824e-18
160703.43 2.7078e-18
161548.58 2.9284e-18
162393.64 2.781e-18
163238.81 2.8691e-18
164083.95 2.7087e-18
164929.03 2.5838e-18
165774.16 2.5768e-18
166619.32 2.7909e-18
167464.39 2.788e-18
168309.53 2.785e-18
169154.7 2.9431e-18
169999.74 3.0135e-18
170844.91 2.9848e-18
171690.06 2.8877e-18
172535.11 3.1082e-18
173380.28 3.3888e-18
174225.43 3.054e-18
175070.58 2.8424e-18
175915.64 2.8788e-18
176760.81 3.141e-18
177605.95 3.5545e-18
178451.02 3.318e-18
179296.18 3.4431e-18
180141.33 3.4371e-18
180986.39 2.9431e-18
181831.53 3.3042e-18
182676.69 3.4594e-18
183521.75 3.6484e-18
184366.91 3.4421e-18
185212.06 2.9568e-18
186057.1 6.0697e-18
186902.27 1.6522e-17
187747.44 1.0633e-17
188592.59 3.6704e-18
189437.64 3.7164e-18
190282.81 3.8108e-18
191127.94 3.6091e-18
191973.02 3.6252e-18
192818.17 3.9673e-18
193663.32 3.4204e-18
194508.38 3.2269e-18
195353.55 3.6487e-18
196198.69 3.4853e-18
197043.75 3.9995e-18
197888.9 3.6886e-18
198734.06 4.1245e-18
199579.13 4.2482e-18
200424.27 4.1086e-18
201269.44 4.2018e-18
202114.59 4.5919e-18
202959.63 4.4881e-18
203804.8 4.1312e-18
205495.02 3.813e-18
207185.32 4.6484e-18
208875.55 4.558e-18
210565.75 4.4427e-18
212256.05 4.4564e-18
213946.27 4.738e-18
215636.59 4.7171e-18
217326.8 4.5513e-18
219017.01 4.8838e-18
220707.33 4.7303e-18
222397.55 4.6212e-18
224087.74 4.8595e-18
225778.05 4.9894e-18
227468.28 5.0222e-18
229158.58 5.2685e-18
230848.8 5.2991e-18
232539.01 5.2126e-18
234229.33 5.0627e-18
235919.54 5.2385e-18
237609.76 5.1137e-18
239300.05 5.3199e-18
240990.27 5.335e-18
242680.58 5.5035e-18
244370.79 5.5235e-18
246061.01 5.5853e-18
247751.33 5.5538e-18
249441.54 5.628e-18
251131.75 5.5017e-18
252822.07 5.7828e-18
254512.29 6.5078e-18
256202.58 6.0569e-18
257892.79 7.752e-18
259583.0 7.4805e-18
261273.32 6.4607e-18
262963.54 6.3648e-18
264653.75 6.0316e-18
266344.05 6.1007e-18
268034.27 6.4321e-18
269724.57 6.4919e-18
271414.79 6.3455e-18
273105.03 6.5536e-18
274795.34 6.553e-18
276485.52 6.7184e-18
278175.73 6.7326e-18
279866.07 6.3113e-18
281556.28 6.3807e-18
283246.59 6.63e-18
284936.8 6.8675e-18
286627.01 6.7267e-18
288317.32 6.8e-18
290007.53 6.8597e-18
291697.74 6.8319e-18
293388.05 6.878e-18
295078.26 6.907e-18
296768.57 6.8686e-18
298458.81 6.9461e-18
300149.02 7.1463e-18
301839.33 7.1506e-18
303529.54 6.8917e-18
305219.75 6.8073e-18
306910.06 7.2086e-18
308600.27 7.2283e-18
310290.58 7.0698e-18
311980.79 6.9973e-18
313671.0 7.3623e-18
315361.31 7.5249e-18
317051.55 7.1757e-18
318741.77 7.459e-18
320432.07 7.4976e-18
322122.25 7.4103e-18
323812.59 7.5879e-18
325502.8 7.753e-18
327193.02 7.8902e-18
328883.32 8.116e-18
330573.53 7.9752e-18
332263.75 1.0323e-17
333954.08 1.8214e-17
335644.3 1.1685e-17
337334.57 8.76e-18
339024.78 8.9272e-18
340715.03 8.6136e-18
342405.3 8.444e-18
344095.52 8.1171e-18
345785.73 9.7527e-18
347476.07 1.1744e-17
349166.25 1.0488e-17
