# col1 col2
# An Atlas of Galaxy Spectral Energy Distributions from the Ultraviolet to the Mid-Infrared
# Brown et al. (2014)
# http://dx.doi.org/10.5072/03/529D3551F0117
# 
# Column 1 : Restframe Wavelength (Angstrom)
# Column 2 : Flux per unit wavelength (ergs/s/cm^2/Angstrom)
# Column 3 : Observed wavelength (Angstrom)
# Column 4 : Source (0 = model, 1 = Optical Spectrum, 2 = Akari, 3 = Spitzer IRS)
# 
100.04 5.6746e-25
101.9 8.6087e-25
104.04 1.1774e-24
105.97 1.6441e-24
107.94 2.3385e-24
109.95 3.8013e-24
114.07 6.6825e-24
118.08 1.0913e-23
121.11 4.8299e-23
125.08 7.2767e-23
127.11 8.6285e-23
127.99 9.5486e-23
130.98 1.2104e-22
131.88 1.4891e-22
134.03 1.7177e-22
137.15 2.4828e-22
140.02 3.0827e-22
142.95 8.8092e-22
146.96 2.223e-21
151.07 2.7921e-21
154.95 3.564e-21
158.92 4.5283e-21
161.88 5.3695e-21
166.03 6.7911e-21
169.9 8.4321e-21
173.06 9.6591e-21
177.09 1.2386e-20
179.97 1.4519e-20
182.05 1.6141e-20
185.86 1.995e-20
191.07 2.5938e-20
194.17 3.0475e-20
197.78 3.732e-20
201.92 4.5913e-20
205.21 5.3449e-20
209.99 6.606e-20
215.87 9.1609e-20
219.88 1.1141e-19
222.94 1.2675e-19
227.08 1.545e-19
230.24 2.2853e-19
233.99 4.0173e-19
239.99 5.8471e-19
246.14 6.9653e-19
251.88 9.2883e-19
257.15 1.0279e-18
260.13 1.2358e-18
263.75 1.8447e-18
269.27 2.2853e-18
274.28 2.7857e-18
278.73 2.8506e-18
283.92 4.0545e-18
289.86 5.1397e-18
295.93 5.6877e-18
300.74 5.9284e-18
307.74 7.8875e-18
317.83 1.0374e-17
328.24 1.3962e-17
338.21 1.6786e-17
347.69 1.9996e-17
356.61 3.2729e-17
365.75 5.9558e-17
375.14 6.9974e-17
384.76 6.6825e-17
394.63 1.172e-16
404.75 1.7019e-16
414.18 1.9451e-16
421.88 1.9904e-16
429.72 2.1327e-16
440.75 2.8836e-16
451.01 3.3415e-16
460.46 3.2956e-16
470.1 3.7752e-16
479.94 4.7199e-16
489.99 4.4765e-16
500.25 6.0665e-16
506.04 5.5582e-16
511.9 9.0144e-16
520.22 9.2244e-16
529.89 9.3312e-16
539.74 8.3548e-16
549.78 8.7687e-16
560.0 1.2329e-15
570.41 1.4755e-15
579.68 1.5486e-15
590.46 1.6824e-15
600.05 1.5203e-15
609.8 1.5486e-15
619.71 2.0746e-15
629.78 2.0603e-15
640.01 2.393e-15
650.41 2.4263e-15
657.94 2.3224e-15
665.56 2.6974e-15
674.82 2.9644e-15
685.79 2.6726e-15
695.33 3.2132e-15
705.0 2.7412e-15
716.45 3.6053e-15
726.42 3.7926e-15
734.83 3.9349e-15
745.05 3.9531e-15
755.42 4.0638e-15
764.17 3.7752e-15
774.8 4.3445e-15
785.58 4.1204e-15
794.67 4.5597e-15
805.73 4.8188e-15
815.06 4.9881e-15
824.5 5.1992e-15
834.04 4.2947e-15
845.65 5.3819e-15
855.44 5.4192e-15
865.34 5.7536e-15
875.36 5.9148e-15
885.5 6.0665e-15
895.75 6.2221e-15
904.04 6.2365e-15
914.51 6.1651e-15
925.1 1.462e-14
935.81 2.393e-14
944.47 3.4036e-14
955.41 4.1585e-14
964.25 4.6019e-14
975.41 1.6941e-14
984.44 3.8454e-14
995.84 3.8454e-14
1005.05 5.0227e-14
1014.35 5.1397e-14
1026.1 3.3261e-14
1035.59 4.4252e-14
1045.17 6.5454e-14
1054.84 6.4112e-14
1064.6 5.4068e-14
1074.46 6.1226e-14
1084.4 5.2837e-14
1094.43 6.4408e-14
1104.56 6.2365e-14
1114.78 6.1367e-14
1125.09 5.5073e-14
1135.5 6.6825e-14
1146.01 6.3232e-14
1153.95 6.5004e-14
1164.63 6.5605e-14
1175.41 4.5913e-14
1186.28 6.3817e-14
1194.51 5.2112e-14
1205.56 4.3645e-14
1213.92 3.443e-14
1225.15 5.2112e-14
1233.64 6.6825e-14
1245.05 7.0948e-14
1253.68 6.9173e-14
1265.28 6.4705e-14
1274.06 7.6197e-14
1285.84 7.8693e-14
1294.76 6.6825e-14
1303.73 6.6979e-14
1315.8 7.8875e-14
1324.92 7.6022e-14
1334.1 7.0459e-14
1346.44 7.9056e-14
1355.78 7.7257e-14
1365.18 7.1275e-14
1374.64 7.2935e-14
1384.17 7.3272e-14
1393.76 5.9284e-14
1403.42 5.9421e-14
1416.41 6.9653e-14
1426.23 6.9492e-14
1436.11 7.1111e-14
1442.74 7.3441e-14
1446.07 7.412e-14
1456.09 7.21e-14
1466.18 6.8067e-14
1476.35 6.8697e-14
1486.58 6.9974e-14
1493.44 7.0297e-14
1503.79 6.7133e-14
1510.74 6.1509e-14
1517.71 6.4556e-14
1524.71 6.3524e-14
1535.28 5.5455e-14
1545.93 5.4694e-14
1556.64 5.3572e-14
1563.83 5.7668e-14
1574.67 6.1509e-14
1585.58 6.3817e-14
1596.57 6.4705e-14
1603.94 6.3378e-14
1615.06 6.3232e-14
1626.25 6.1509e-14
1633.76 6.4854e-14
1645.09 6.5304e-14
1656.49 6.2797e-14
1664.13 6.6365e-14
1671.82 6.0665e-14
1675.67 6.8067e-14
1683.4 6.9014e-14
1695.07 6.5908e-14
1706.82 6.3964e-14
1714.7 6.0945e-14
1726.59 6.0247e-14
1734.56 6.3817e-14
1746.58 6.2797e-14
1754.64 6.5304e-14
1766.8 6.1935e-14
1774.96 6.1935e-14
1783.15 6.3232e-14
1795.51 6.5605e-14
1803.8 6.5756e-14
1816.3 6.1226e-14
1824.69 6.2508e-14
1833.11 6.0945e-14
1845.82 5.6877e-14
1854.34 5.714e-14
1862.89 5.8336e-14
1875.81 6.1651e-14
1884.47 5.7271e-14
1893.16 5.5073e-14
1906.29 5.8336e-14
1915.09 5.6097e-14
1923.93 5.4568e-14
1932.81 5.7271e-14
1946.2 5.874e-14
1955.19 5.4568e-14
1968.74 5.9012e-14
1977.83 6.0805e-14
1982.39 5.7801e-14
1996.13 5.6486e-14
2005.34 5.8202e-14
2014.6 5.6877e-14
2023.9 5.9148e-14
2033.24 5.5711e-14
2047.33 5.714e-14
2056.78 5.2352e-14
2066.28 5.4068e-14
2075.81 5.874e-14
2085.4 5.714e-14
2095.02 5.4442e-14
2104.69 5.5327e-14
2114.41 5.5968e-14
2124.17 5.6356e-14
2133.97 5.4068e-14
2143.82 5.3943e-14
2153.72 5.5711e-14
2163.66 5.4442e-14
2173.64 5.4192e-14
2183.68 5.2959e-14
2193.76 5.482e-14
2203.88 5.3819e-14
2214.05 5.2112e-14
2224.27 5.0926e-14
2234.54 5.2473e-14
2244.86 5.1161e-14
2255.22 4.9767e-14
2265.63 5.0691e-14
2276.08 5.1275e-14
2286.59 5.1627e-14
2297.14 4.896e-14
2302.44 4.9298e-14
2313.07 4.7841e-14
2323.74 4.081e-14
2334.47 4.5892e-14
2345.25 4.5364e-14
2356.07 4.6739e-14
2366.95 4.4838e-14
2372.4 4.5044e-14
2383.35 4.3212e-14
2394.35 4.483e-14
2405.41 4.3605e-14
2416.51 4.4006e-14
2427.66 4.4924e-14
2433.26 4.3497e-14
2444.49 4.4816e-14
2455.77 4.4197e-14
2467.11 4.3991e-14
2472.8 4.2988e-14
2484.21 4.3583e-14
2495.68 3.893e-14
2507.2 4.3677e-14
2512.98 4.1043e-14
2518.77 4.2483e-14
2524.58 4.1419e-14
2536.23 4.1416e-14
2542.07 4.0659e-14
2553.81 4.1795e-14
2565.6 4.1408e-14
2577.44 4.2467e-14
2583.38 4.2173e-14
2595.3 4.1783e-14
2607.28 4.0923e-14
2613.29 4.0546e-14
2625.36 4.1107e-14
2637.48 4.1199e-14
2643.55 4.2449e-14
2655.76 4.2348e-14
2668.02 4.0346e-14
2674.17 4.1094e-14
2686.51 4.0902e-14
2692.7 3.9786e-14
2705.13 4.0058e-14
2717.62 3.9143e-14
2723.88 3.9232e-14
2736.46 3.9866e-14
2742.76 3.7548e-14
2755.42 3.7545e-14
2768.14 3.7976e-14
2774.52 3.8859e-14
2787.33 3.8147e-14
2793.76 3.4233e-14
2806.65 3.5678e-14
2813.12 3.8317e-14
2826.11 3.8402e-14
2832.62 3.7011e-14
2845.69 3.6753e-14
2852.25 3.6499e-14
2865.42 3.7346e-14
2872.03 3.6832e-14
2885.28 3.6828e-14
2891.93 3.6405e-14
2911.98 3.7248e-14
2932.16 3.648e-14
2952.49 3.5892e-14
2972.96 3.5804e-14
2986.68 3.5473e-14
3007.38 3.5305e-14
3028.23 3.5057e-14
3049.22 3.4651e-14
3070.35 3.4329e-14
3091.64 3.4009e-14
3113.07 3.3693e-14
3127.44 3.3227e-14
3149.11 3.307e-14
3170.94 3.2612e-14
3192.92 3.1792e-14
3207.66 3.1862e-14
3229.89 3.1348e-14
3252.28 3.1415e-14
3267.29 3.1268e-14
3289.94 3.0977e-14
3312.75 3.0759e-14
3320.39 3.1474e-14
3328.04 3.14e-14
3335.71 3.1471e-14
3343.4 3.0053e-14
3351.11 3.1179e-14
3358.83 2.9569e-14
3366.57 3.0048e-14
3374.34 2.943e-14
3382.12 2.9429e-14
3389.91 3.0322e-14
3397.73 3.053e-14
3405.56 2.9424e-14
3413.41 2.9559e-14
3421.28 3.0176e-14
3429.17 2.9967e-14
3437.07 3.0173e-14
3444.99 2.908e-14
3452.94 3.0239e-14
3460.89 2.8744e-14
3468.87 2.8743e-14
3476.87 2.8478e-14
3484.88 2.8411e-14
3492.92 2.9004e-14
3500.97 2.8539e-14
3509.04 2.7824e-14
3517.13 2.7631e-14
3525.24 2.8208e-14
3533.36 2.8533e-14
3541.51 2.8663e-14
3549.67 2.8927e-14
3557.86 2.8463e-14
3566.06 2.8791e-14
3574.28 2.7557e-14
3582.52 2.6743e-14
3590.78 2.6253e-14
3599.05 2.7112e-14
3607.35 2.711e-14
3615.67 2.7423e-14
3624.0 2.7739e-14
3629.87 2.7191e-14
3632.58 2.8646e-14
3635.28 2.6456e-14
3637.99 2.9953e-14
3640.7 3.071e-14
3643.41 3.1743e-14
3646.11 3.0881e-14
3648.82 2.7196e-14
3651.53 2.8559e-14
3654.23 2.8557e-14
3656.94 2.769e-14
3659.65 2.7869e-14
3662.36 2.8299e-14
3665.06 3.1015e-14
3667.77 2.7316e-14
3670.48 2.5527e-14
3673.18 2.5818e-14
3675.89 2.6255e-14
3678.6 2.6344e-14
3681.31 2.5181e-14
3684.01 2.7533e-14
3686.72 2.6215e-14
3689.43 2.5191e-14
3692.13 2.5294e-14
3694.84 2.7452e-14
3697.55 2.5569e-14
3700.26 2.578e-14
3702.96 2.3089e-14
3705.67 2.2964e-14
3708.38 2.6135e-14
3711.09 2.8237e-14
3713.79 2.7807e-14
3716.5 3.2868e-14
3719.21 5.1061e-14
3721.91 9.328e-14
3724.62 1.5227e-13
3727.33 1.8888e-13
3730.04 1.6634e-13
3732.74 1.0984e-13
3735.45 5.8746e-14
3738.16 3.8994e-14
3740.86 3.4121e-14
3743.57 3.0196e-14
3746.28 2.6748e-14
3748.99 2.7434e-14
3751.69 2.9149e-14
3754.4 3.0969e-14
3757.11 3.0505e-14
3759.81 3.2597e-14
3762.52 3.2512e-14
3765.23 2.6367e-14
3767.94 2.6937e-14
3770.64 2.6367e-14
3773.35 2.7386e-14
3776.06 3.0639e-14
3778.77 3.0954e-14
3781.47 3.2263e-14
3784.18 3.3001e-14
3786.89 3.2768e-14
3789.59 3.2251e-14
3792.3 2.9723e-14
3795.01 2.7818e-14
3797.72 2.7897e-14
3800.42 2.9037e-14
3803.13 3.1613e-14
3805.84 3.3014e-14
3808.54 3.6478e-14
3811.25 3.4047e-14
3813.96 3.6009e-14
3816.67 3.4803e-14
3819.37 3.5138e-14
3822.08 3.511e-14
3824.79 3.3174e-14
3827.49 3.1649e-14
3830.2 2.9662e-14
3832.91 2.6807e-14
3835.62 2.8857e-14
3838.32 3.003e-14
3841.03 2.8879e-14
3843.74 3.1677e-14
3846.45 3.3554e-14
3849.15 3.3259e-14
3851.86 3.5781e-14
3854.57 3.4615e-14
3857.27 3.3675e-14
3859.98 3.5119e-14
3862.69 4.0309e-14
3865.4 4.2416e-14
3868.1 4.1217e-14
3870.81 4.021e-14
3873.52 3.6192e-14
3876.22 3.4803e-14
3878.93 3.3352e-14
3881.64 3.3861e-14
3884.35 3.4264e-14
3887.05 3.3545e-14
3889.76 3.6918e-14
3892.47 3.5013e-14
3895.18 3.1321e-14
3897.88 3.1767e-14
3900.59 3.3068e-14
3903.3 3.3325e-14
3906.0 3.3854e-14
3908.71 3.5258e-14
3911.42 3.7387e-14
3914.13 3.6484e-14
3916.83 3.5448e-14
3919.54 3.5175e-14
3922.25 3.4477e-14
3924.95 3.645e-14
3927.66 3.3874e-14
3930.37 3.3284e-14
3933.08 3.2052e-14
3935.78 3.0028e-14
3938.49 3.3278e-14
3941.2 3.1717e-14
3943.9 3.4432e-14
3946.61 3.3349e-14
3949.32 3.3531e-14
3952.03 3.5665e-14
3954.73 3.4038e-14
3957.44 3.2366e-14
3960.15 3.2898e-14
3962.86 3.0299e-14
3965.56 3.1743e-14
3968.27 3.2345e-14
3970.98 3.389e-14
3973.68 3.1157e-14
3976.39 3.3125e-14
3979.1 3.2569e-14
3981.81 3.2728e-14
3984.51 3.2959e-14
3987.22 3.489e-14
3989.93 3.4299e-14
3992.63 3.7871e-14
3995.34 3.8022e-14
3998.05 3.6521e-14
4000.76 3.7898e-14
4003.46 3.5496e-14
4006.17 3.5239e-14
4008.88 3.6565e-14
4011.58 3.7644e-14
4014.29 3.7801e-14
4017.0 3.6812e-14
4019.71 3.5614e-14
4022.41 3.697e-14
4025.12 3.7421e-14
4027.83 3.6097e-14
4030.54 3.5681e-14
4033.24 3.6688e-14
4035.95 3.9461e-14
4038.66 3.8967e-14
4041.36 3.6189e-14
4044.07 3.7272e-14
4046.78 3.4783e-14
4049.49 3.7568e-14
4052.19 3.666e-14
4054.9 3.871e-14
4057.61 3.869e-14
4060.31 3.9475e-14
4063.02 3.618e-14
4065.73 3.6108e-14
4068.44 3.6992e-14
4071.14 3.6847e-14
4073.85 3.4261e-14
4076.56 3.5981e-14
4079.26 3.4489e-14
4081.97 3.3983e-14
4084.68 3.4645e-14
4087.39 3.1608e-14
4090.09 3.166e-14
4092.8 3.3057e-14
4095.51 3.2394e-14
4098.22 3.393e-14
4100.92 4.0262e-14
4103.63 3.9676e-14
4106.34 3.5472e-14
4109.04 3.2726e-14
4111.75 3.215e-14
4114.46 3.242e-14
4117.17 3.2593e-14
4119.87 3.3088e-14
4122.58 3.3114e-14
4125.29 3.537e-14
4127.99 3.3888e-14
4130.7 3.3308e-14
4133.41 3.4513e-14
4136.12 3.6319e-14
4138.82 3.4791e-14
4141.53 3.4204e-14
4144.24 3.4048e-14
4146.95 3.4579e-14
4149.65 3.5182e-14
4152.36 3.6013e-14
4155.07 3.4908e-14
4157.77 3.654e-14
4160.48 3.6279e-14
4163.19 3.5281e-14
4165.9 3.5722e-14
4168.6 3.6885e-14
4171.31 3.4556e-14
4174.02 3.4908e-14
4176.72 3.4964e-14
4179.43 3.4613e-14
4182.14 3.417e-14
4184.85 3.3878e-14
4187.55 3.2305e-14
4190.26 3.3822e-14
4192.97 3.4834e-14
4195.67 3.3971e-14
4198.38 3.5252e-14
4201.09 3.4922e-14
4203.8 3.3127e-14
4206.5 3.3864e-14
4209.21 3.4445e-14
4211.92 3.4072e-14
4214.63 3.5254e-14
4217.33 3.4488e-14
4220.04 3.4647e-14
4222.75 3.5291e-14
4225.45 3.376e-14
4228.16 3.3541e-14
4230.87 3.2666e-14
4233.58 3.328e-14
4236.28 3.4303e-14
4238.99 3.3853e-14
4241.7 3.3044e-14
4244.4 3.323e-14
4247.11 3.3961e-14
4249.82 3.3303e-14
4252.53 3.31e-14
4255.23 3.3638e-14
4257.94 3.3611e-14
4260.65 3.3598e-14
4263.35 3.3214e-14
4266.06 3.2312e-14
4268.77 3.2573e-14
4271.48 3.3177e-14
4274.18 3.2838e-14
4276.89 3.2541e-14
4279.6 3.2502e-14
4282.31 3.326e-14
4285.01 3.3995e-14
4287.72 3.267e-14
4290.43 3.3409e-14
4293.13 3.2384e-14
4295.84 3.1874e-14
4298.55 3.277e-14
4301.26 3.1591e-14
4303.96 3.0501e-14
4306.67 3.1273e-14
4309.38 3.1277e-14
4312.08 3.1356e-14
4314.79 3.1764e-14
4317.5 3.1309e-14
4320.21 3.0085e-14
4322.91 3.0866e-14
4325.62 3.064e-14
4328.33 2.9687e-14
4331.03 3.0628e-14
4333.74 3.4363e-14
4336.45 4.0689e-14
4339.16 4.8417e-14
4341.86 4.7418e-14
4344.57 4.0345e-14
4347.28 3.2214e-14
4349.99 2.9708e-14
4352.69 3.0311e-14
4355.4 3.0425e-14
4358.11 3.2275e-14
4360.81 3.2333e-14
4363.52 3.2574e-14
4366.23 3.1955e-14
4368.94 3.1798e-14
4371.64 3.1812e-14
4374.35 3.1678e-14
4377.06 3.1521e-14
4379.76 3.2994e-14
4382.47 3.1933e-14
4385.18 3.1113e-14
4387.89 3.0774e-14
4390.59 3.1431e-14
4393.3 3.0665e-14
4396.01 3.0577e-14
4398.72 3.113e-14
4401.42 3.1952e-14
4404.13 2.9621e-14
4406.84 3.1343e-14
4409.54 3.1259e-14
4412.25 3.0808e-14
4414.96 3.0733e-14
4417.67 3.1137e-14
4420.37 3.3296e-14
4423.08 3.3285e-14
4425.79 3.3233e-14
4428.49 3.3036e-14
4431.2 3.1977e-14
4433.91 3.1809e-14
4436.62 3.0965e-14
4439.32 3.1677e-14
4442.03 3.1647e-14
4444.74 3.0938e-14
4447.44 3.147e-14
4450.15 3.1035e-14
4452.86 3.1228e-14
4455.57 3.1558e-14
4458.27 3.2378e-14
4460.98 3.0418e-14
4463.69 2.9362e-14
4466.4 2.9537e-14
4469.1 3.243e-14
4471.81 3.2478e-14
4474.52 3.2746e-14
4477.22 3.1985e-14
4479.93 3.1813e-14
4482.64 3.1258e-14
4485.35 3.1446e-14
4488.05 2.8856e-14
4490.76 3.0445e-14
4493.47 3.179e-14
4496.17 3.0232e-14
4498.88 3.03e-14
4501.59 3.1208e-14
4504.3 3.1325e-14
4507.0 3.2812e-14
4509.71 3.1466e-14
4512.42 3.0305e-14
4515.12 3.1373e-14
4517.83 3.1979e-14
4520.54 3.1014e-14
4523.25 3.069e-14
4525.95 3.1188e-14
4528.66 3.0957e-14
4531.37 3.2308e-14
4534.08 3.1237e-14
4536.78 3.1585e-14
4539.49 3.1506e-14
4542.2 3.0765e-14
4544.9 3.0476e-14
4547.61 3.0437e-14
4550.32 3.0923e-14
4553.03 3.2305e-14
4555.73 3.0531e-14
4558.44 3.0589e-14
4561.15 3.1165e-14
4563.85 2.9866e-14
4566.56 3.346e-14
4569.27 3.2824e-14
4571.98 3.11e-14
4574.68 3.1982e-14
4577.39 3.0952e-14
4580.1 3.0981e-14
4582.81 3.0181e-14
4585.51 2.9348e-14
4588.22 3.083e-14
4590.93 2.9407e-14
4593.63 3.0877e-14
4596.34 2.9501e-14
4599.05 3.044e-14
4601.76 2.9446e-14
4604.46 3.0435e-14
4607.17 2.987e-14
4609.88 2.9816e-14
4612.58 2.9964e-14
4615.29 3.1347e-14
4618.0 3.0808e-14
4620.71 3.1346e-14
4623.41 3.0777e-14
4626.12 2.9484e-14
4628.83 3.1345e-14
4631.53 3.1311e-14
4634.24 2.9829e-14
4636.95 3.0368e-14
4639.66 3.1238e-14
4642.36 3.1089e-14
4645.07 2.9796e-14
4647.78 2.9161e-14
4650.49 3.0001e-14
4653.19 3.1819e-14
4655.9 3.2138e-14
4658.61 3.0441e-14
4661.31 3.0441e-14
4664.02 2.9294e-14
4666.73 2.9357e-14
4669.44 2.9598e-14
4672.14 2.9564e-14
4674.85 3.088e-14
4677.56 2.9925e-14
4680.26 3.1164e-14
4682.97 3.1515e-14
4685.68 2.9289e-14
4688.39 2.988e-14
4691.09 2.9004e-14
4693.8 3.0559e-14
4696.51 3.0845e-14
4699.21 3.0695e-14
4701.92 3.0617e-14
4704.63 3.0575e-14
4707.34 3.0293e-14
4710.04 2.8781e-14
4712.75 3.0171e-14
4715.46 2.8589e-14
4718.17 2.9173e-14
4720.87 2.8647e-14
4723.58 3.0656e-14
4726.29 2.9946e-14
4728.99 3.0044e-14
4731.7 2.918e-14
4734.41 2.9897e-14
4737.12 2.9525e-14
4739.82 2.9603e-14
4742.53 2.9589e-14
4745.24 2.8975e-14
4747.94 3.0521e-14
4750.65 2.9834e-14
4753.36 2.9537e-14
4756.07 2.949e-14
4758.77 2.8585e-14
4761.48 2.8728e-14
4764.19 2.7879e-14
4766.89 3.0083e-14
4769.6 2.9471e-14
4772.31 3.0154e-14
4775.02 2.9908e-14
4777.72 2.9584e-14
4780.43 2.9119e-14
4783.14 2.8019e-14
4785.85 2.7429e-14
4788.55 2.8551e-14
4791.26 2.8013e-14
4793.97 2.7731e-14
4796.67 2.9341e-14
4799.38 2.9905e-14
4802.09 3.0155e-14
4804.8 3.081e-14
4807.5 2.9817e-14
4810.21 2.9337e-14
4812.92 2.8357e-14
4815.62 2.9595e-14
4818.33 2.8943e-14
4821.04 2.8633e-14
4823.75 2.7927e-14
4826.45 2.8383e-14
4829.16 2.7788e-14
4831.87 2.7082e-14
4834.58 2.8749e-14
4837.28 2.7366e-14
4839.99 2.8106e-14
4842.7 2.6807e-14
4845.4 2.6885e-14
4848.11 2.6847e-14
4850.82 2.8208e-14
4853.53 3.4092e-14
4856.23 4.8987e-14
4858.94 7.1465e-14
4861.65 8.1275e-14
4864.35 7.1951e-14
4867.06 5.0191e-14
4869.77 3.4043e-14
4872.48 2.7524e-14
4875.18 2.5227e-14
4877.89 2.6615e-14
4880.6 2.7112e-14
4883.3 2.7197e-14
4886.01 2.5997e-14
4888.72 2.607e-14
4891.43 2.699e-14
4894.13 2.8043e-14
4896.84 2.8819e-14
4899.55 2.8099e-14
4902.26 2.8086e-14
4904.96 2.7941e-14
4907.67 2.6835e-14
4910.38 2.75e-14
4913.08 2.7448e-14
4915.79 2.6839e-14
4918.5 2.6611e-14
4921.21 2.6638e-14
4923.91 2.6593e-14
4926.62 2.6613e-14
4929.33 2.7073e-14
4932.03 2.6278e-14
4934.74 2.6993e-14
4937.45 2.7308e-14
4940.16 2.6352e-14
4942.86 2.7142e-14
4945.57 2.8604e-14
4948.28 2.927e-14
4950.98 3.2861e-14
4953.69 4.184e-14
4956.4 5.4616e-14
4959.11 6.2997e-14
4961.81 5.7502e-14
4964.52 4.4172e-14
4967.23 3.3502e-14
4969.94 2.8806e-14
4972.64 2.7507e-14
4975.35 2.7804e-14
4978.06 2.8136e-14
4980.76 2.7908e-14
4983.47 2.7361e-14
4986.18 2.8221e-14
4988.89 2.7789e-14
4991.59 2.7054e-14
4994.3 2.8771e-14
4997.01 3.2511e-14
4999.71 4.8292e-14
5002.42 8.335e-14
5005.13 1.2313e-13
5007.84 1.3486e-13
5010.54 1.0698e-13
5013.25 6.774e-14
5015.96 4.1305e-14
5018.66 3.0856e-14
5021.37 2.7901e-14
5024.08 2.6443e-14
5026.79 2.6388e-14
5029.49 2.6681e-14
5032.2 2.7084e-14
5034.91 2.6626e-14
5037.62 2.7094e-14
5040.32 2.6692e-14
5043.03 2.6388e-14
5045.74 2.6994e-14
5048.44 2.663e-14
5051.15 2.6401e-14
5053.86 2.7288e-14
5056.57 2.7568e-14
5059.27 2.7507e-14
5061.98 2.7419e-14
5064.69 2.6466e-14
5067.39 2.5969e-14
5070.1 2.6171e-14
5072.81 2.5919e-14
5075.52 2.5686e-14
5078.22 2.5972e-14
5080.93 2.5342e-14
5083.64 2.563e-14
5086.35 2.6041e-14
5089.05 2.6273e-14
5091.76 2.6106e-14
5094.47 2.6215e-14
5097.17 2.6278e-14
5099.88 2.5662e-14
5102.59 2.5318e-14
5105.3 2.6036e-14
5108.0 2.6181e-14
5110.71 2.5426e-14
5113.42 2.588e-14
5116.12 2.5963e-14
5118.83 2.5931e-14
5121.54 2.6183e-14
5124.25 2.5555e-14
5126.95 2.485e-14
5129.66 2.503e-14
5132.37 2.5861e-14
5135.07 2.5444e-14
5137.78 2.5472e-14
5140.49 2.5853e-14
5143.2 2.5541e-14
5145.9 2.4795e-14
5148.61 2.4783e-14
5151.32 2.5858e-14
5154.03 2.5044e-14
5156.73 2.5037e-14
5159.44 2.5344e-14
5162.15 2.4679e-14
5164.85 2.4656e-14
5167.56 2.4501e-14
5170.27 2.3891e-14
5172.98 2.3272e-14
5175.68 2.3972e-14
5178.39 2.5163e-14
5181.1 2.4571e-14
5183.8 2.42e-14
5186.51 2.4504e-14
5189.22 2.4842e-14
5191.93 2.5505e-14
5194.63 2.5936e-14
5197.34 2.5628e-14
5200.05 2.6242e-14
5202.75 2.606e-14
5205.46 2.4364e-14
5208.17 2.4461e-14
5210.88 2.4812e-14
5213.58 2.4512e-14
5216.29 2.4469e-14
5219.0 2.4634e-14
5221.71 2.4483e-14
5224.41 2.3627e-14
5227.12 2.4272e-14
5229.83 2.4281e-14
5232.53 2.4518e-14
5235.24 2.5282e-14
5237.95 2.5314e-14
5240.66 2.5204e-14
5243.36 2.5346e-14
5246.07 2.5482e-14
5248.78 2.5037e-14
5251.48 2.5429e-14
5254.19 2.6271e-14
5256.9 2.5957e-14
5259.61 2.549e-14
5262.31 2.5396e-14
5265.02 2.4873e-14
5267.73 2.4093e-14
5270.43 2.3609e-14
5273.14 2.5082e-14
5275.85 2.5419e-14
5278.56 2.4435e-14
5281.26 2.4861e-14
5283.97 2.4445e-14
5286.68 2.4516e-14
5289.39 2.5291e-14
5292.09 2.627e-14
5294.8 2.6083e-14
5297.51 2.4885e-14
5300.21 2.5146e-14
5302.92 2.5271e-14
5305.63 2.5055e-14
5308.34 2.4984e-14
5311.04 2.4162e-14
5313.75 2.4224e-14
5316.46 2.4578e-14
5319.16 2.4436e-14
5321.87 2.4438e-14
5324.58 2.437e-14
5327.29 2.4149e-14
5329.99 2.5144e-14
5332.7 2.512e-14
5335.41 2.431e-14
5338.12 2.381e-14
5340.82 2.3694e-14
5343.53 2.4064e-14
5346.24 2.3954e-14
5348.94 2.4434e-14
5351.65 2.4601e-14
5354.36 2.4489e-14
5357.07 2.5407e-14
5359.77 2.5485e-14
5362.48 2.4641e-14
5365.19 2.5187e-14
5367.89 2.4795e-14
5370.6 2.467e-14
5373.31 2.4206e-14
5376.02 2.4596e-14
5378.72 2.5705e-14
5381.43 2.5586e-14
5384.14 2.5187e-14
5386.84 2.4754e-14
5389.55 2.4576e-14
5392.26 2.5093e-14
5394.97 2.3945e-14
5397.67 2.2617e-14
5400.38 2.3703e-14
5403.09 2.4559e-14
5405.8 2.3027e-14
5408.5 2.2531e-14
5411.21 2.3578e-14
5413.92 2.4417e-14
5416.62 2.5507e-14
5419.33 2.5143e-14
5422.04 2.4048e-14
5424.75 2.3934e-14
5427.45 2.3542e-14
5430.16 2.3993e-14
5432.87 2.446e-14
5435.57 2.3912e-14
5438.28 2.425e-14
5440.99 2.4486e-14
5443.7 2.4291e-14
5446.4 2.3628e-14
5449.11 2.3071e-14
5451.82 2.4931e-14
5454.52 2.4764e-14
5457.23 2.3189e-14
5459.94 2.2927e-14
5462.65 2.3489e-14
5465.35 2.3778e-14
5468.06 2.2875e-14
5470.77 2.1664e-14
5473.48 2.364e-14
5476.18 2.3515e-14
5478.89 2.3596e-14
5481.6 2.3376e-14
5484.3 2.3678e-14
5487.01 2.4237e-14
5489.72 2.4465e-14
5492.43 2.4184e-14
5495.13 2.4188e-14
5497.84 2.4495e-14
5500.55 2.3152e-14
5503.25 2.4078e-14
5505.96 2.2748e-14
5508.67 2.4189e-14
5511.38 2.3638e-14
5514.08 2.2918e-14
5516.79 2.3606e-14
5519.5 2.3629e-14
5522.2 2.4249e-14
5524.91 2.3309e-14
5527.62 2.3623e-14
5530.33 2.3261e-14
5533.03 2.367e-14
5535.74 2.4316e-14
5538.45 2.4507e-14
5541.16 2.4818e-14
5543.86 2.3797e-14
5546.57 2.3717e-14
5549.28 2.377e-14
5551.98 2.4388e-14
5554.69 2.3799e-14
5557.4 2.4659e-14
5560.11 2.321e-14
5562.81 2.3928e-14
5565.52 2.3402e-14
5568.23 2.387e-14
5570.93 2.3151e-14
5573.64 2.3481e-14
5576.35 2.3732e-14
5579.06 2.378e-14
5581.76 2.322e-14
5584.47 2.1724e-14
5587.18 2.305e-14
5589.89 2.2611e-14
5592.59 2.3173e-14
5595.3 2.3271e-14
5598.01 2.4116e-14
5600.71 2.3309e-14
5603.42 2.4024e-14
5606.13 2.2411e-14
5608.84 2.3227e-14
5611.54 2.3213e-14
5614.25 2.241e-14
5616.96 2.3401e-14
5619.66 2.3567e-14
5622.37 2.4314e-14
5625.08 2.2121e-14
5627.79 2.2731e-14
5630.49 2.2689e-14
5633.2 2.3353e-14
5635.91 2.395e-14
5638.61 2.1821e-14
5641.32 2.4148e-14
5644.03 2.3321e-14
5646.74 2.2704e-14
5649.44 2.2288e-14
5652.15 2.3598e-14
5654.86 2.2935e-14
5657.57 2.2657e-14
5660.27 2.2898e-14
5662.98 2.3862e-14
5665.69 2.3111e-14
5668.39 2.3134e-14
5671.1 2.3454e-14
5673.81 2.3703e-14
5676.52 2.4213e-14
5679.22 2.2593e-14
5681.93 2.1707e-14
5684.64 2.2576e-14
5687.34 2.262e-14
5690.05 2.2543e-14
5692.76 2.3728e-14
5695.47 2.4429e-14
5698.17 2.332e-14
5700.88 2.3501e-14
5703.59 2.2617e-14
5706.29 2.1027e-14
5709.0 2.1478e-14
5711.71 2.1414e-14
5714.42 2.2596e-14
5717.12 2.2181e-14
5719.83 2.318e-14
5722.54 2.3391e-14
5725.25 2.305e-14
5727.95 2.2572e-14
5730.66 2.4061e-14
5733.37 2.3547e-14
5736.07 2.2899e-14
5738.78 2.2343e-14
5741.49 2.2256e-14
5744.2 2.3729e-14
5746.9 2.3719e-14
5749.61 2.2659e-14
5752.32 2.216e-14
5755.02 2.3595e-14
5757.73 2.3645e-14
5760.44 2.3222e-14
5763.15 2.1919e-14
5765.85 2.3014e-14
5768.56 2.2421e-14
5771.27 2.3354e-14
5773.98 2.3071e-14
5776.68 2.1705e-14
5779.39 2.2425e-14
5782.1 2.2624e-14
5784.8 2.2643e-14
5787.51 2.2405e-14
5790.22 2.2636e-14
5792.93 2.2507e-14
5795.63 2.2966e-14
5798.34 2.2916e-14
5801.05 2.2074e-14
5803.75 2.2018e-14
5806.46 2.2906e-14
5809.17 2.2203e-14
5811.88 2.3161e-14
5814.58 2.2976e-14
5817.29 2.2661e-14
5820.0 2.2782e-14
5822.7 2.2485e-14
5825.41 2.2538e-14
5828.12 2.2535e-14
5830.83 2.281e-14
5833.53 2.2638e-14
5836.24 2.1335e-14
5838.95 2.2209e-14
5841.66 2.2215e-14
5844.36 2.1421e-14
5847.07 2.109e-14
5849.78 2.1562e-14
5852.48 2.1397e-14
5855.19 2.0258e-14
5857.9 2.1484e-14
5860.61 2.1931e-14
5863.31 2.3472e-14
5866.02 2.3258e-14
5868.73 2.3185e-14
5871.43 2.6608e-14
5874.14 2.9131e-14
5876.85 2.8373e-14
5879.56 2.6212e-14
5882.26 2.4237e-14
5884.97 2.3103e-14
5887.68 2.067e-14
5890.38 1.9843e-14
5893.09 2.0808e-14
5895.8 2.0754e-14
5898.51 2.0913e-14
5901.21 2.0421e-14
5903.92 2.0406e-14
5906.63 2.1303e-14
5909.34 2.1977e-14
5912.04 2.1601e-14
5914.75 2.1122e-14
5917.46 2.0517e-14
5920.16 2.0582e-14
5922.87 2.2254e-14
5925.58 2.1879e-14
5928.29 2.087e-14
5930.99 2.1687e-14
5933.7 2.0989e-14
5936.41 2.0219e-14
5939.11 2.1348e-14
5941.82 2.1759e-14
5944.53 2.1286e-14
5947.24 2.1317e-14
5949.94 2.1206e-14
5952.65 2.2347e-14
5955.36 2.1283e-14
5958.06 2.1318e-14
5960.77 2.1474e-14
5963.48 2.1394e-14
5966.19 2.091e-14
5968.89 2.2419e-14
5971.6 2.1751e-14
5974.31 2.1444e-14
5977.02 2.1386e-14
5979.72 2.0599e-14
5982.43 2.1106e-14
5985.14 2.0838e-14
5987.84 2.1195e-14
5990.55 2.1548e-14
5993.26 2.0768e-14
5995.97 2.0421e-14
5998.67 2.0175e-14
6001.38 2.0502e-14
6004.09 2.0102e-14
6006.79 2.013e-14
6009.5 2.1196e-14
6012.21 2.1111e-14
6014.92 2.143e-14
6017.62 2.1185e-14
6020.33 2.1512e-14
6023.04 2.1632e-14
6025.75 2.1736e-14
6028.45 2.0685e-14
6031.16 2.1644e-14
6033.87 2.0896e-14
6036.57 2.0362e-14
6039.28 2.0714e-14
6041.99 2.0469e-14
6044.7 2.2622e-14
6047.4 2.07e-14
6050.11 2.029e-14
6052.82 1.9642e-14
6055.52 2.0826e-14
6058.23 2.157e-14
6060.94 2.0814e-14
6063.65 2.1024e-14
6066.35 2.0435e-14
6069.06 2.072e-14
6071.77 2.1687e-14
6074.47 2.1767e-14
6077.18 2.0726e-14
6079.89 2.1232e-14
6082.6 2.0829e-14
6085.3 2.0798e-14
6088.01 2.1175e-14
6090.72 2.0666e-14
6093.43 2.0451e-14
6096.13 1.9929e-14
6098.84 2.0456e-14
6101.55 2.004e-14
6104.25 1.9939e-14
6106.96 1.9543e-14
6109.67 2.0725e-14
6112.38 2.0755e-14
6115.08 2.0845e-14
6117.79 1.9268e-14
6120.5 1.9268e-14
6123.2 2.0111e-14
6125.91 1.9653e-14
6128.62 2.0326e-14
6131.33 2.0579e-14
6134.03 1.9721e-14
6136.74 2.1568e-14
6139.45 2.1175e-14
6142.15 2.0675e-14
6144.86 2.0117e-14
6147.57 1.939e-14
6150.28 1.9736e-14
6152.98 2.0478e-14
6155.69 2.1024e-14
6158.4 2.0039e-14
6161.11 2.066e-14
6163.81 1.9885e-14
6166.52 1.9641e-14
6169.23 2.0055e-14
6171.93 2.0214e-14
6174.64 2.0845e-14
6177.35 2.0111e-14
6180.06 1.9647e-14
6182.76 2.053e-14
6185.47 1.9535e-14
6188.18 2.0527e-14
6190.88 1.9822e-14
6193.59 2.1747e-14
6196.3 2.0871e-14
6199.01 1.9432e-14
6201.71 2.0282e-14
6204.42 1.952e-14
6207.13 2.0381e-14
6209.83 2.0764e-14
6212.54 2.094e-14
6215.25 2.1445e-14
6217.96 1.904e-14
6220.66 1.9224e-14
6223.37 1.9036e-14
6226.08 1.9481e-14
6228.79 2.0396e-14
6231.49 1.9062e-14
6234.2 1.8486e-14
6236.91 1.9615e-14
6239.61 2.0136e-14
6242.32 1.9764e-14
6245.03 1.9655e-14
6247.74 1.9138e-14
6250.44 1.9078e-14
6253.15 1.9096e-14
6255.86 2.008e-14
6258.56 1.9871e-14
6261.27 1.9493e-14
6263.98 2.0463e-14
6266.69 2.0242e-14
6269.39 2.0204e-14
6272.1 1.8961e-14
6274.81 1.8694e-14
6277.52 2.1081e-14
6280.22 1.9398e-14
6282.93 1.9018e-14
6285.64 1.9312e-14
6288.34 1.866e-14
6291.05 1.9312e-14
6293.76 2.2142e-14
6296.47 2.6454e-14
6299.17 2.9048e-14
6301.88 2.8476e-14
6304.59 2.4518e-14
6307.29 2.2389e-14
6310.0 2.0478e-14
6312.71 2.07e-14
6315.42 2.031e-14
6318.12 2.031e-14
6320.83 2.0035e-14
6323.54 1.9705e-14
6326.24 1.919e-14
6328.95 1.9712e-14
6331.66 1.8747e-14
6334.37 2.1062e-14
6337.07 1.9707e-14
6339.78 1.9217e-14
6342.49 1.993e-14
6345.2 2.0968e-14
6347.9 2.0442e-14
6350.61 1.9243e-14
6353.32 2.0557e-14
6356.02 1.9636e-14
6358.73 2.0017e-14
6361.44 2.273e-14
6364.15 2.4303e-14
6366.85 2.3103e-14
6369.56 2.1565e-14
6372.27 1.9398e-14
6374.97 1.7646e-14
6377.68 1.7354e-14
6380.39 1.9073e-14
6383.1 1.9824e-14
6385.8 2.0064e-14
6388.51 2.0621e-14
6391.22 1.9114e-14
6393.92 1.9046e-14
6396.63 1.9881e-14
6399.34 1.9632e-14
6402.05 1.935e-14
6404.75 1.9703e-14
6407.46 1.9693e-14
6410.17 1.8973e-14
6412.88 1.9239e-14
6415.58 1.8617e-14
6418.29 1.8853e-14
6421.0 1.8701e-14
6423.7 1.9605e-14
6426.41 1.9164e-14
6429.12 1.8714e-14
6431.83 1.8753e-14
6434.53 2.0125e-14
6437.24 2.0008e-14
6439.95 1.9193e-14
6442.65 1.963e-14
6445.36 1.9945e-14
6448.07 1.852e-14
6450.78 1.8844e-14
6453.48 1.7679e-14
6456.19 1.809e-14
6458.9 1.8983e-14
6461.6 1.9237e-14
6464.31 1.8553e-14
6467.02 1.8934e-14
6469.73 1.9314e-14
6472.43 1.8732e-14
6475.14 1.9043e-14
6477.85 1.8495e-14
6480.56 1.8414e-14
6483.26 1.8292e-14
6485.97 1.9319e-14
6488.68 2.0148e-14
6491.38 1.8399e-14
6494.09 1.8693e-14
6496.8 1.8056e-14
6499.51 1.7969e-14
6502.21 1.7549e-14
6504.92 1.8661e-14
6507.63 1.9546e-14
6510.33 1.9427e-14
6513.04 1.9213e-14
6515.75 1.8465e-14
6518.46 1.8517e-14
6521.16 1.9462e-14
6523.87 1.9468e-14
6526.58 1.9895e-14
6529.29 2.074e-14
6531.99 1.8283e-14
6534.7 2.0318e-14
6537.41 1.9654e-14
6540.11 2.1917e-14
6542.82 2.4731e-14
6545.53 3.0268e-14
6548.24 3.2026e-14
6550.94 3.2585e-14
6553.65 4.4522e-14
6556.36 8.9344e-14
6559.06 1.7573e-13
6561.77 2.3586e-13
6564.48 2.1571e-13
6567.19 1.4187e-13
6569.89 7.4471e-14
6572.6 3.7878e-14
6575.31 2.9694e-14
6578.01 3.6212e-14
6580.72 4.8511e-14
6583.43 5.2749e-14
6586.14 4.6322e-14
6588.84 3.1916e-14
6591.55 2.3751e-14
6594.26 2.0291e-14
6596.97 1.88e-14
6599.67 1.99e-14
6602.38 2.0404e-14
6605.09 2.0167e-14
6607.79 1.8141e-14
6610.5 1.928e-14
6613.21 1.9178e-14
6615.92 1.9527e-14
6618.62 1.8393e-14
6621.33 1.8452e-14
6624.04 1.7748e-14
6626.74 1.8013e-14
6629.45 1.9336e-14
6632.16 1.9243e-14
6634.87 2.0048e-14
6637.57 1.9225e-14
6640.28 1.8659e-14
6642.99 1.8134e-14
6645.69 1.8585e-14
6648.4 1.8977e-14
6651.11 1.7925e-14
6653.82 1.8668e-14
6656.52 1.8677e-14
6659.23 1.8295e-14
6661.94 1.8784e-14
6664.65 1.8378e-14
6667.35 1.9789e-14
6670.06 1.8876e-14
6672.77 1.9273e-14
6675.47 2.0967e-14
6678.18 2.0469e-14
6680.89 1.9598e-14
6683.6 2.0508e-14
6686.3 1.8794e-14
6689.01 1.8383e-14
6691.72 1.8466e-14
6694.42 1.8387e-14
6697.13 1.7739e-14
6699.84 1.8651e-14
6702.55 1.8063e-14
6705.25 1.8997e-14
6707.96 2.1628e-14
6710.67 3.4084e-14
6713.37 4.8821e-14
6716.08 5.6246e-14
6718.79 5.0692e-14
6721.5 4.1075e-14
6732.69 1.8528e-14
6748.21 1.8354e-14
6763.76 1.8477e-14
6779.36 1.8388e-14
6794.98 1.8342e-14
6810.65 1.8338e-14
6826.35 1.8292e-14
6842.08 1.8414e-14
6857.86 1.8242e-14
6873.67 1.7822e-14
6889.51 1.7736e-14
6905.39 1.7773e-14
6921.31 1.781e-14
6937.27 1.8013e-14
6953.26 1.7967e-14
6969.29 1.8004e-14
6985.35 1.7111e-14
7001.46 1.7831e-14
7017.6 1.7704e-14
7033.77 1.7457e-14
7049.99 1.8067e-14
7066.24 1.721e-14
7082.53 1.7486e-14
7098.86 1.6849e-14
7115.22 1.6884e-14
7131.62 1.6764e-14
7148.06 1.6683e-14
7164.54 1.6795e-14
7181.06 1.6371e-14
7197.61 1.5775e-14
7214.2 1.5735e-14
7230.83 1.6473e-14
7247.5 1.6318e-14
7264.21 1.6849e-14
7280.95 1.631e-14
7297.74 1.568e-14
7314.56 1.6378e-14
7331.42 1.6602e-14
7348.32 1.7181e-14
7365.27 1.6442e-14
7382.24 1.6898e-14
7399.26 1.6586e-14
7416.32 1.6543e-14
7433.42 1.677e-14
7450.55 1.6459e-14
7467.73 1.6342e-14
7484.94 1.668e-14
7502.19 1.6073e-14
7519.49 1.633e-14
7536.83 1.663e-14
7554.2 1.6435e-14
7571.61 1.6431e-14
7589.07 1.6427e-14
7606.56 1.6012e-14
7624.1 1.6045e-14
7641.67 1.5931e-14
7659.29 1.589e-14
7676.94 1.4928e-14
7694.64 1.552e-14
7712.38 1.5339e-14
7730.16 1.5513e-14
7747.98 1.5437e-14
7765.84 1.5292e-14
7783.74 1.4735e-14
7801.68 1.5284e-14
7819.67 1.528e-14
7837.7 1.5276e-14
7855.76 1.5485e-14
7873.87 1.5516e-14
7892.02 1.5229e-14
7910.22 1.5016e-14
7928.45 1.4705e-14
7946.73 1.4366e-14
7965.05 1.4529e-14
7983.41 1.4897e-14
8001.81 1.4622e-14
8020.26 1.4753e-14
8038.75 1.4749e-14
8057.28 1.461e-14
8075.85 1.4506e-14
8094.47 1.4435e-14
8113.13 1.4431e-14
8131.83 1.4628e-14
8150.58 1.4063e-14
8169.36 1.3676e-14
8188.2 1.3641e-14
8207.07 1.3574e-14
8225.99 1.4276e-14
8244.96 1.4206e-14
8263.96 1.3879e-14
8283.01 1.3497e-14
8302.11 1.384e-14
8321.25 1.3868e-14
8340.43 1.3642e-14
8359.65 1.4183e-14
8378.93 1.3952e-14
8398.24 1.3413e-14
8417.6 1.3977e-14
8437.01 1.394e-14
8456.46 1.3309e-14
8475.95 1.2854e-14
8495.49 1.3897e-14
8515.07 1.3514e-14
8534.7 1.3635e-14
8554.37 1.1208e-14
8574.1 1.3785e-14
8593.86 1.3406e-14
8613.67 1.3007e-14
8633.53 1.3647e-14
8653.43 1.3425e-14
8673.38 9.8354e-15
8693.38 1.2902e-14
8713.41 1.3229e-14
8733.5 1.3596e-14
8753.63 1.2714e-14
8773.81 1.2887e-14
8794.04 1.3429e-14
8814.31 1.2414e-14
8834.63 1.2846e-14
8855.0 1.2872e-14
8875.41 1.1495e-14
8895.87 1.2776e-14
8916.38 1.298e-14
8936.93 1.2651e-14
8957.53 1.2618e-14
8978.18 1.2586e-14
8998.88 1.0734e-14
9019.62 1.093e-14
9040.42 1.2749e-14
9061.25 1.3133e-14
9082.14 1.2224e-14
9103.08 1.2419e-14
9124.07 1.2881e-14
9145.1 1.1477e-14
9166.18 1.1368e-14
9187.31 1.1845e-14
9208.49 1.223e-14
9229.71 1.1784e-14
9250.99 1.1726e-14
9272.32 1.1968e-14
9293.69 1.1909e-14
9315.12 1.2239e-14
9336.59 1.2207e-14
9358.11 1.2175e-14
9379.69 1.2032e-14
9401.31 1.1863e-14
9422.98 1.2108e-14
9444.71 1.1938e-14
9466.48 1.2072e-14
9488.3 1.204e-14
9510.17 1.1763e-14
9532.1 1.1571e-14
9554.07 1.0845e-14
9576.09 1.151e-14
9598.17 1.1856e-14
9620.29 1.1744e-14
9642.47 1.1659e-14
9664.7 1.1602e-14
9686.98 1.1705e-14
9709.31 1.1567e-14
9731.69 1.1484e-14
9754.13 1.1401e-14
9776.61 1.1424e-14
9799.15 1.1289e-14
9821.74 1.1337e-14
9844.38 1.136e-14
9867.07 1.1278e-14
9889.82 1.1248e-14
9912.61 1.1193e-14
9935.47 1.124e-14
9958.37 1.1211e-14
9981.33 1.1207e-14
10027.4 1.0869e-14
10073.69 1.0639e-14
10120.19 1.098e-14
10166.89 1.0872e-14
10213.82 1.0864e-14
10284.62 1.0853e-14
10308.33 1.0774e-14
10499.97 1.0355e-14
10695.18 9.8841e-15
10894.03 9.3097e-15
11096.56 8.9937e-15
11302.86 8.7687e-15
11512.99 8.6684e-15
11700.06 8.4127e-15
11890.17 8.1084e-15
12111.24 7.9239e-15
12308.03 7.7614e-15
12508.02 7.5151e-15
12711.25 7.3103e-15
12888.09 7.1111e-15
13097.5 6.9653e-15
13310.32 6.7443e-15
13495.48 6.5756e-15
13714.77 6.426e-15
13905.56 6.2078e-15
14099.01 5.9421e-15
14295.14 5.8068e-15
14494.01 5.7801e-15
14695.63 5.6097e-15
14900.07 5.6226e-15
15107.35 5.5968e-15
15317.51 5.6356e-15
15494.89 5.5968e-15
15710.44 5.4442e-15
15892.37 5.2112e-15
16113.45 5.2352e-15
16300.02 5.2112e-15
16488.77 5.1043e-15
16718.16 5.0692e-15
16911.75 4.9767e-15
17107.56 4.8971e-15
17305.66 4.6875e-15
17506.06 4.5597e-15
17708.77 4.3746e-15
17913.84 4.2067e-15
18079.58 3.9989e-15
18288.94 3.8899e-15
18500.72 3.7665e-15
18714.93 3.5804e-15
18888.1 3.4989e-15
19106.82 3.4509e-15
19283.6 3.3492e-15
19506.9 3.2132e-15
19687.41 3.1256e-15
19915.38 3.0335e-15
20099.64 2.985e-15
20285.63 2.8836e-15
20520.51 2.8506e-15
20710.39 2.7793e-15
20902.03 2.716e-15
21095.42 2.6726e-15
21290.63 2.6178e-15
21487.63 2.5641e-15
21686.44 2.4771e-15
21887.11 2.4375e-15
22089.62 2.3765e-15
22294.02 2.3117e-15
22500.31 2.2591e-15
22708.49 2.2014e-15
22918.62 1.986e-15
23077.47 1.9744e-15
23291.02 1.7446e-15
23506.51 1.6404e-15
23724.02 1.6603e-15
23888.48 1.5297e-15
24109.51 1.4751e-15
24276.64 1.463e-15
24501.25 1.3629e-15
24727.97 1.3448e-15
24899.36 1.1914e-15
25071.97 1.1843e-15
25303.94 1.1875e-15
25479.36 1.1749e-15
25630.14 1.1624e-15
25725.43 1.1367e-15
25820.63 1.1349e-15
25915.92 1.1305e-15
26011.22 1.1664e-15
26106.41 1.2461e-15
26201.7 1.2576e-15
26296.9 1.2192e-15
26392.19 1.1708e-15
26487.49 1.135e-15
26582.68 1.1237e-15
26677.97 1.0989e-15
26773.27 1.0865e-15
26868.46 1.0545e-15
26963.76 1.0396e-15
27058.95 1.0183e-15
27154.24 1.0122e-15
27249.54 1.0058e-15
27344.73 1.012e-15
27440.03 1.0086e-15
27535.32 1.0112e-15
27630.52 1.0018e-15
27725.81 9.9422e-16
27821.01 9.9e-16
27916.3 9.9977e-16
28011.59 1.0045e-15
28106.79 9.9072e-16
28202.08 9.693e-16
28297.37 9.6116e-16
28392.57 9.3541e-16
28487.87 9.0131e-16
28583.06 8.7349e-16
28678.35 8.6524e-16
28773.64 8.6881e-16
28868.84 8.6924e-16
28964.13 8.6237e-16
29059.43 8.5607e-16
29154.62 8.4957e-16
29249.92 8.4578e-16
29345.11 8.2146e-16
29440.41 8.0537e-16
29535.7 8.126e-16
29630.89 8.1865e-16
29726.19 8.2566e-16
29821.48 8.1856e-16
29916.68 8.0853e-16
30011.97 8.0881e-16
30107.17 8.0367e-16
30202.46 7.831e-16
30297.75 7.576e-16
30392.95 7.5037e-16
30488.24 7.4339e-16
30583.54 7.4108e-16
30678.73 7.3408e-16
30774.02 7.3699e-16
30869.22 7.254e-16
30964.51 7.2244e-16
31059.81 7.2715e-16
31155.0 7.3489e-16
31250.29 7.3108e-16
31345.59 7.1923e-16
31440.78 7.1141e-16
31536.08 6.9617e-16
31631.27 6.8234e-16
31726.57 6.7538e-16
31821.86 6.8517e-16
31917.06 7.1155e-16
32012.35 7.3985e-16
32107.64 7.615e-16
32202.84 7.7611e-16
32298.13 8.2023e-16
32393.32 8.594e-16
32488.62 9.1562e-16
32583.91 1.0033e-15
32679.11 1.1557e-15
32774.4 1.3111e-15
32869.7 1.4069e-15
32964.89 1.4285e-15
33060.19 1.3706e-15
33155.38 1.2143e-15
33250.67 1.0227e-15
33345.97 8.6849e-16
33441.16 7.7692e-16
33536.46 7.3473e-16
33631.75 7.129e-16
33726.94 7.0689e-16
33822.24 7.3268e-16
33917.43 7.695e-16
34012.73 8.0621e-16
34108.02 8.1162e-16
34203.21 7.9769e-16
34298.51 7.6765e-16
34393.8 7.4555e-16
34489.0 7.2216e-16
34584.29 7.2142e-16
34679.49 7.1379e-16
34774.78 6.9605e-16
34870.07 6.5533e-16
34965.27 6.3204e-16
35060.56 6.0686e-16
35155.86 6.1058e-16
35251.05 6.0867e-16
35346.34 5.9653e-16
35441.54 5.8203e-16
35536.83 5.6068e-16
35632.13 5.5129e-16
35727.32 5.4292e-16
35822.61 5.3038e-16
35917.91 5.3075e-16
36013.11 5.2446e-16
36108.4 5.2326e-16
36203.59 5.2404e-16
36298.89 5.3239e-16
36394.18 5.3475e-16
36489.38 5.3167e-16
36584.67 5.194e-16
36679.96 4.9571e-16
36775.16 4.9077e-16
36870.45 4.8475e-16
36965.65 4.8396e-16
37060.94 4.7377e-16
37156.23 4.7429e-16
37251.43 5.0338e-16
37346.72 5.5906e-16
37442.02 5.6954e-16
37537.21 5.4944e-16
37632.51 4.9797e-16
37727.7 4.7344e-16
37822.99 4.6606e-16
37918.29 4.5805e-16
38013.48 4.6651e-16
38108.78 4.7056e-16
38204.07 4.7519e-16
38299.26 4.6842e-16
38394.56 4.5657e-16
38489.75 4.4689e-16
38585.05 4.4389e-16
38680.34 4.4308e-16
38775.54 4.7136e-16
38870.83 4.6877e-16
38966.13 4.6761e-16
39061.32 4.358e-16
39156.61 4.2673e-16
39251.81 4.2202e-16
39347.1 4.1923e-16
39442.39 4.2465e-16
39537.59 4.2948e-16
39632.88 4.2826e-16
39728.18 4.3211e-16
39823.37 4.3639e-16
39918.66 4.5116e-16
40013.86 4.5982e-16
40109.15 4.5799e-16
40204.45 4.5329e-16
40299.64 4.7524e-16
40394.94 5.7689e-16
40490.23 6.5579e-16
40585.43 6.4884e-16
40680.72 5.705e-16
40775.91 4.7779e-16
40871.21 4.2416e-16
40966.5 4.0823e-16
41061.7 4.1253e-16
41156.99 4.166e-16
41252.29 4.1591e-16
41347.48 4.0461e-16
41442.77 3.9322e-16
41537.97 3.9053e-16
41633.26 3.9449e-16
41728.55 4.0989e-16
41823.75 4.258e-16
41919.05 4.309e-16
42014.34 4.3104e-16
42109.54 4.2759e-16
42204.83 4.271e-16
42300.02 4.1795e-16
42395.31 4.0456e-16
42490.61 3.9884e-16
42585.8 4.0369e-16
42681.09 4.1386e-16
42776.39 4.1636e-16
42871.59 4.1513e-16
42966.88 4.1154e-16
43062.08 4.119e-16
43157.37 4.0654e-16
43252.66 4.0166e-16
43347.85 3.98e-16
43443.15 3.9484e-16
43538.44 3.8964e-16
43633.64 3.9457e-16
43728.93 3.9697e-16
43824.13 3.982e-16
43919.42 4.2926e-16
44014.71 4.5608e-16
44109.91 4.6561e-16
44205.2 4.9391e-16
44300.5 4.92e-16
44395.69 4.6766e-16
44490.99 4.3503e-16
44586.18 3.995e-16
44681.48 3.7282e-16
44776.77 3.6254e-16
44871.96 3.5727e-16
44967.26 3.5771e-16
45062.55 3.5567e-16
45157.75 3.4593e-16
45253.04 3.5142e-16
45348.24 3.7659e-16
45443.53 3.9601e-16
45538.83 3.855e-16
45634.02 3.4196e-16
45729.31 3.2602e-16
45824.6 3.3622e-16
45919.8 3.5966e-16
46110.29 4.2595e-16
46205.58 4.2923e-16
46300.88 3.9458e-16
46396.07 4.1847e-16
46491.37 4.3179e-16
46586.66 4.3506e-16
46681.85 4.3187e-16
46777.14 4.1924e-16
46872.34 4.0529e-16
46967.63 3.8984e-16
47062.93 3.6983e-16
47158.13 3.646e-16
47253.42 3.5604e-16
47348.71 3.6228e-16
47443.91 3.5914e-16
47539.2 3.5955e-16
47634.39 3.6199e-16
47729.69 3.6342e-16
47824.98 3.5107e-16
47920.18 3.55e-16
48015.47 3.5142e-16
48110.76 3.5098e-16
48205.96 3.9434e-16
48301.25 4.1093e-16
48396.45 4.1775e-16
48491.74 4.1294e-16
48588.02 3.4595e-16
49073.9 3.4798e-16
49564.64 3.5003e-16
50060.29 3.521e-16
50560.89 3.5419e-16
51066.5 3.5631e-16
51577.16 3.5844e-16
52092.94 3.6059e-16
52527.38 3.6241e-16
52832.4 3.5133e-16
53137.44 3.8236e-16
53442.47 6.0962e-16
53747.5 3.5588e-16
54052.53 2.3494e-16
54357.57 3.0232e-16
54662.59 3.1922e-16
54967.63 3.9457e-16
55272.66 4.2193e-16
55577.7 2.8973e-16
55882.72 3.9683e-16
56187.76 4.5046e-16
56492.79 5.1688e-16
56797.82 5.3148e-16
57102.85 4.1835e-16
57407.89 5.3032e-16
57712.92 6.0225e-16
58017.95 6.2817e-16
58322.98 5.0009e-16
58628.02 4.4526e-16
58933.05 5.0661e-16
59238.07 4.6493e-16
59543.11 7.0964e-16
59848.14 6.9227e-16
60153.17 7.1936e-16
60458.21 6.914e-16
60763.24 7.6408e-16
61068.26 8.9918e-16
61373.3 1.2229e-15
61678.33 1.7122e-15
61983.36 2.1834e-15
62288.39 2.0797e-15
62593.43 1.8381e-15
62898.46 1.4964e-15
63203.49 1.2765e-15
63508.51 1.0851e-15
63813.56 9.1163e-16
64118.58 8.4564e-16
64423.61 7.6687e-16
64728.65 6.9663e-16
65033.67 6.2374e-16
65338.7 5.5269e-16
65643.75 5.7376e-16
65948.77 5.6728e-16
66253.8 6.632e-16
66558.84 6.3791e-16
66863.87 6.2589e-16
67168.9 6.0766e-16
67473.93 5.6503e-16
67778.96 5.8319e-16
68084.0 6.1324e-16
68389.02 5.9004e-16
68694.06 5.2887e-16
68999.09 6.1792e-16
69304.12 6.5644e-16
69609.16 7.1849e-16
69914.19 8.4196e-16
70219.22 7.0354e-16
70524.25 7.9516e-16
70829.28 7.3937e-16
71134.32 7.5906e-16
71439.34 8.1018e-16
71744.37 7.4992e-16
72049.42 8.7329e-16
72354.44 9.8615e-16
72659.47 8.6419e-16
72964.51 9.3388e-16
73269.54 1.0474e-15
73574.57 1.0856e-15
73879.6 1.2876e-15
74164.67 1.2695e-15
74184.63 1.3314e-15
74489.67 1.3759e-15
74775.93 1.6423e-15
74794.69 1.5456e-15
75387.22 1.9306e-15
75998.49 2.0337e-15
76609.77 1.9908e-15
77221.05 1.7803e-15
77832.34 1.7622e-15
78443.61 1.6991e-15
79054.89 1.4758e-15
79666.18 1.2399e-15
80277.45 1.1221e-15
80888.73 9.4066e-16
81500.01 8.4543e-16
82111.28 8.3498e-16
82722.57 8.1985e-16
83333.85 7.806e-16
83945.13 8.3856e-16
84556.4 8.9496e-16
85167.69 9.7158e-16
85778.96 9.8588e-16
86390.24 9.3888e-16
87001.52 8.1424e-16
87612.8 6.663e-16
88224.07 5.1739e-16
88835.35 4.4865e-16
89446.63 4.3185e-16
90057.92 4.2494e-16
90669.19 3.2698e-16
91280.48 2.5551e-16
91891.76 2.7646e-16
92503.03 3.0143e-16
93114.31 2.8493e-16
93725.58 2.6171e-16
94336.87 2.4988e-16
94948.15 2.9018e-16
95559.42 2.7273e-16
96170.71 3.1796e-16
96781.99 3.3319e-16
97393.27 2.7003e-16
98004.55 2.4382e-16
98615.78 2.5102e-16
99227.11 2.4034e-16
99838.35 2.3036e-16
100449.69 2.242e-16
101060.93 2.4173e-16
101672.26 2.1982e-16
102283.51 2.1455e-16
102894.74 2.3092e-16
103506.07 2.421e-16
104117.31 2.4685e-16
104728.65 3.7322e-16
105339.89 4.4498e-16
105951.12 3.4364e-16
106562.46 3.2369e-16
107173.7 3.0914e-16
107785.03 3.0964e-16
108396.27 3.256e-16
109007.6 3.5614e-16
109618.85 4.1962e-16
110230.08 4.958e-16
110841.42 5.5237e-16
111452.66 8.2015e-16
112063.99 1.2063e-15
112675.23 1.2657e-15
113286.56 1.0433e-15
113897.8 8.0722e-16
114509.04 6.3411e-16
115120.38 5.3852e-16
115731.62 4.8621e-16
116342.94 4.3347e-16
116954.18 4.0102e-16
117565.52 3.9376e-16
118176.76 4.1597e-16
118788.0 4.4749e-16
119399.34 4.554e-16
120010.58 4.4796e-16
120621.9 4.2981e-16
121233.14 4.1788e-16
121844.39 4.1515e-16
122455.72 4.6372e-16
123066.96 4.9574e-16
123678.29 4.8467e-16
124289.54 4.7202e-16
124900.86 4.9496e-16
125512.11 5.3421e-16
126123.34 5.708e-16
126734.68 6.2259e-16
127345.92 7.2182e-16
127957.25 9.6377e-16
128568.49 8.0955e-16
129179.72 4.6655e-16
129791.06 3.6502e-16
130402.3 3.4488e-16
131013.64 3.4194e-16
131624.87 3.418e-16
132236.2 3.3972e-16
132847.45 3.2334e-16
133458.69 3.3176e-16
134070.03 3.3658e-16
134681.26 3.3538e-16
135292.59 3.4718e-16
135903.84 3.5362e-16
136515.17 3.4513e-16
137126.4 3.1771e-16
137737.64 3.0415e-16
138348.98 3.1199e-16
138960.22 3.0035e-16
139571.54 3.1384e-16
140182.79 3.057e-16
140794.12 3.1464e-16
141405.37 2.9992e-16
142016.6 2.9344e-16
142627.95 2.868e-16
143153.93 2.9207e-16
144056.55 2.9098e-16
144959.28 2.6516e-16
145861.92 2.5228e-16
146764.54 2.6561e-16
147667.18 2.6264e-16
148569.91 2.4542e-16
149472.54 2.7016e-16
150375.17 2.6728e-16
151277.9 2.5167e-16
152180.53 2.6757e-16
153083.16 2.6e-16
153985.79 2.7776e-16
154888.52 5.113e-16
155791.16 6.9392e-16
156693.78 4.0397e-16
157596.51 2.8489e-16
158499.15 2.7321e-16
159401.77 2.6357e-16
160304.5 2.8752e-16
161207.14 2.8725e-16
162109.76 2.9655e-16
163012.4 3.1091e-16
163915.14 3.7903e-16
164817.75 3.9835e-16
165720.39 3.6617e-16
166623.02 3.623e-16
167525.75 3.3825e-16
168428.39 3.4518e-16
169331.03 4.0236e-16
170233.76 5.3094e-16
171136.38 4.6387e-16
172039.02 3.7568e-16
172941.75 3.7588e-16
173844.37 3.8494e-16
174747.01 3.5321e-16
175649.63 3.2652e-16
176552.36 3.4474e-16
177454.99 3.3739e-16
178357.62 3.2695e-16
179260.35 3.3174e-16
180162.98 3.2278e-16
181065.61 3.1643e-16
181968.34 3.0163e-16
182870.97 3.1973e-16
183773.61 3.194e-16
184676.23 3.2842e-16
185578.96 3.4287e-16
186481.6 5.3697e-16
187384.22 6.7683e-16
188286.97 4.1903e-16
189189.6 3.3494e-16
190092.21 3.4434e-16
190994.85 3.4072e-16
191897.59 3.3438e-16
192800.21 3.053e-16
193702.85 3.2605e-16
194605.58 3.389e-16
195508.2 3.2307e-16
196410.84 3.2841e-16
197313.48 3.2915e-16
198216.21 3.3073e-16
199118.83 3.3539e-16
200021.47 3.3174e-16
200924.2 3.5192e-16
202353.6 3.2169e-16
204081.27 3.6988e-16
205809.95 3.5184e-16
207539.62 3.314e-16
209270.15 3.6597e-16
211001.58 3.6446e-16
212733.99 3.4942e-16
214467.31 3.5862e-16
216201.58 4.0171e-16
217936.85 3.7488e-16
219673.0 3.55e-16
221410.15 3.7034e-16
223148.18 3.8839e-16
224887.17 3.7497e-16
226627.17 3.6012e-16
228368.05 3.7856e-16
230109.92 3.8999e-16
231852.78 3.9295e-16
233596.51 3.8798e-16
235341.33 3.8748e-16
237086.94 3.9416e-16
238833.61 4.0551e-16
240581.3 4.0176e-16
242329.86 3.9879e-16
244079.39 4.0653e-16
245829.92 4.0674e-16
247581.33 4.081e-16
249333.83 4.0469e-16
251087.22 4.0139e-16
252841.69 4.03e-16
254597.02 4.1295e-16
256353.38 4.1254e-16
258110.69 4.3379e-16
259868.99 4.3472e-16
261628.27 4.0982e-16
263388.57 4.0536e-16
265149.82 4.1144e-16
266912.06 4.1784e-16
268675.28 4.1632e-16
270439.49 4.1469e-16
272204.8 4.1705e-16
273970.97 4.1676e-16
275738.13 4.2264e-16
277506.37 4.549e-16
279275.62 4.2278e-16
281045.73 4.4e-16
282816.92 4.3326e-16
284589.12 4.2576e-16
286362.4 4.2053e-16
288136.64 4.2358e-16
289911.79 4.0165e-16
291688.09 4.2999e-16
293465.31 4.2979e-16
295243.57 4.2536e-16
297022.85 4.1977e-16
298803.11 4.5363e-16
300584.45 4.2846e-16
302366.78 4.3983e-16
304150.09 4.3121e-16
305934.48 4.3494e-16
307719.97 4.2421e-16
309506.42 4.3029e-16
311293.88 4.2492e-16
313082.3 4.5238e-16
314871.91 4.3052e-16
316662.42 4.4003e-16
318454.07 4.5691e-16
320246.63 4.5199e-16
322040.37 4.5327e-16
323835.13 4.515e-16
325630.8 4.8118e-16
327427.62 4.7417e-16
329225.51 4.7998e-16
331024.45 4.9257e-16
332824.43 5.4868e-16
334625.43 7.3309e-16
336427.44 5.7719e-16
338230.56 4.5052e-16
340034.85 4.5953e-16
341840.01 4.8454e-16
343646.36 4.8606e-16
