# col1 col2
# An Atlas of Galaxy Spectral Energy Distributions from the Ultraviolet to the Mid-Infrared
# Brown et al. (2014)
# http://dx.doi.org/10.5072/03/529D3551F0117
# 
# Column 1 : Restframe Wavelength (Angstrom)
# Column 2 : Flux per unit wavelength (ergs/s/cm^2/Angstrom)
# Column 3 : Observed wavelength (Angstrom)
# Column 4 : Source (0 = model, 1 = Optical Spectrum, 2 = Akari, 3 = Spitzer IRS)
# 
102.03 3.6229e-19
103.93 4.3457e-19
106.1 5.3096e-19
108.07 6.6384e-19
110.08 9.3986e-19
113.95 1.3034e-18
117.96 1.7024e-18
120.98 6.3396e-18
124.95 7.7457e-18
126.98 8.2806e-18
127.86 8.731e-18
131.14 9.5293e-18
132.05 1.1222e-17
133.88 1.1805e-17
137.0 1.4759e-17
139.87 1.5924e-17
143.13 4.3758e-17
147.14 1.057e-16
150.91 1.1196e-16
155.14 1.1997e-16
159.12 1.2884e-16
162.08 1.3523e-16
165.85 1.459e-16
170.11 1.5419e-16
172.87 1.6146e-16
176.9 1.6985e-16
180.19 1.7622e-16
181.85 1.8116e-16
186.09 1.897e-16
190.86 2.0094e-16
193.96 2.0944e-16
198.03 2.178e-16
202.17 2.2754e-16
204.99 2.35e-16
209.76 2.35e-16
216.13 2.5945e-16
220.15 2.6981e-16
223.21 2.7357e-16
226.84 2.8514e-16
230.0 4.3258e-16
233.73 7.2121e-16
239.73 9.0795e-16
245.88 8.454e-16
252.19 8.9756e-16
256.88 7.3971e-16
259.85 8.6509e-16
264.07 9.1004e-16
268.98 9.0378e-16
273.98 8.9343e-16
279.08 8.8321e-16
284.26 8.7915e-16
290.22 8.3188e-16
296.29 8.3188e-16
301.11 8.0735e-16
308.12 8.1108e-16
318.22 8.1482e-16
327.89 7.9995e-16
337.85 7.7457e-16
348.11 7.5e-16
357.04 7.3631e-16
366.2 7.3293e-16
374.73 7.1296e-16
385.23 6.6537e-16
395.11 6.7618e-16
405.25 6.669e-16
413.74 6.4873e-16
422.4 6.2526e-16
430.25 6.0682e-16
441.29 5.9575e-16
450.53 5.742e-16
459.96 5.5216e-16
469.59 5.3587e-16
480.53 5.2609e-16
489.47 5.0011e-16
499.71 4.9666e-16
505.5 4.798e-16
512.53 5.0011e-16
519.66 4.8648e-16
530.55 4.6565e-16
540.41 4.3557e-16
550.46 4.1885e-16
559.4 4.2468e-16
569.8 4.2468e-16
580.39 4.0744e-16
589.82 4e-16
599.41 3.7416e-16
610.55 3.2141e-16
620.47 3.6818e-16
630.55 3.5161e-16
639.33 3.5161e-16
649.71 3.3811e-16
658.75 3.2364e-16
664.85 3.2814e-16
675.65 3.229e-16
685.05 3.0065e-16
694.58 3.0554e-16
704.24 2.8123e-16
715.69 2.9246e-16
725.64 2.858e-16
735.74 2.7994e-16
744.26 2.7043e-16
754.61 2.6246e-16
765.11 2.3338e-16
775.75 2.5065e-16
784.73 2.3663e-16
795.65 2.3717e-16
804.86 2.3446e-16
814.18 2.2965e-16
825.51 2.2598e-16
835.07 2.0187e-16
844.74 2.1432e-16
854.52 2.0848e-16
864.41 2.0609e-16
874.42 2.028e-16
884.55 1.9864e-16
894.79 1.9501e-16
905.15 1.8926e-16
915.63 2.0233e-16
924.11 3.6988e-16
934.81 5.6242e-16
945.63 7.8897e-16
954.38 9.6175e-16
965.43 1.0305e-15
974.37 3.9451e-16
985.65 8.5519e-16
994.77 8.6509e-16
1003.97 1.13e-15
1015.6 1.1093e-15
1025.0 6.1244e-16
1034.48 8.6709e-16
1044.05 1.3585e-15
1056.14 1.3154e-15
1065.91 1.0741e-15
1075.78 1.2192e-15
1085.73 9.7738e-16
1095.78 1.2504e-15
1105.92 1.1887e-15
1116.15 1.1404e-15
1123.89 1.0187e-15
1134.29 1.2418e-15
1144.78 1.143e-15
1155.37 1.1832e-15
1166.06 1.1914e-15
1174.15 8.3958e-16
1185.01 1.1378e-15
1195.98 8.5322e-16
1204.27 6.6384e-16
1215.41 4.8091e-16
1223.83 8.338e-16
1235.16 1.1274e-15
1243.72 1.2024e-15
1255.23 1.1483e-15
1263.93 1.0211e-15
1275.62 1.2418e-15
1284.46 1.2796e-15
1296.35 1.0329e-15
1305.34 1.0211e-15
1314.38 1.2304e-15
1323.49 1.1724e-15
1335.74 1.0449e-15
1345.0 1.208e-15
1354.32 1.167e-15
1363.71 1.0473e-15
1376.33 1.0816e-15
1385.87 1.0791e-15
1395.48 9.1004e-16
1405.15 9.2696e-16
1414.89 9.8869e-16
1424.7 9.9784e-16
1434.57 9.9555e-16
1441.19 1.0353e-15
1447.85 1.0449e-15
1454.53 1.0117e-15
1464.61 9.3339e-16
1474.76 9.291e-16
1484.99 9.3986e-16
1495.28 9.442e-16
1505.64 8.9138e-16
1512.59 7.9811e-16
1516.08 8.454e-16
1526.59 8.2047e-16
1533.64 7.1296e-16
1544.27 7.4828e-16
1554.97 7.1296e-16
1565.75 7.3462e-16
1576.6 7.7636e-16
1583.88 8.0549e-16
1594.86 8.1482e-16
1605.91 7.9444e-16
1613.33 7.9261e-16
1624.51 7.5173e-16
1635.77 7.9261e-16
1643.32 7.9811e-16
1654.71 7.4312e-16
1666.18 7.9811e-16
1673.87 7.146e-16
1677.73 8.0179e-16
1685.47 8.2616e-16
1693.25 7.7457e-16
1704.99 7.4484e-16
1716.81 7.0317e-16
1724.73 6.9512e-16
1736.69 7.3631e-16
1744.71 7.1625e-16
1756.8 7.5694e-16
1764.91 6.9673e-16
1773.06 7.0479e-16
1785.35 7.146e-16
1793.59 7.5694e-16
1806.02 7.4828e-16
1814.35 6.8717e-16
1826.93 6.9994e-16
1835.36 6.7152e-16
1843.84 6.1526e-16
1856.62 6.1526e-16
1865.19 6.325e-16
1873.8 6.7774e-16
1886.78 6.2382e-16
1895.49 6.0126e-16
1904.24 6.325e-16
1913.03 6.0682e-16
1926.29 5.8893e-16
1935.18 5.9988e-16
1944.12 6.325e-16
1953.09 5.9165e-16
1966.63 6.4723e-16
1975.71 6.5624e-16
1984.83 6.2815e-16
1993.99 6.1103e-16
2003.19 6.2526e-16
2017.08 6.0682e-16
2026.39 6.2096e-16
2035.74 5.985e-16
2045.14 6.2382e-16
2054.58 5.8893e-16
2064.06 5.9029e-16
2073.59 6.3542e-16
2078.37 6.9352e-16
2083.16 7.6394e-16
2092.77 7.146e-16
2107.28 7.1131e-16
2117.01 7.4142e-16
2126.78 7.1955e-16
2136.6 6.7618e-16
2146.46 7.4312e-16
2156.37 7.552e-16
2166.32 7.0479e-16
2176.32 6.9994e-16
2186.36 7.6219e-16
2196.45 7.7101e-16
2206.59 7.5173e-16
2216.78 6.5927e-16
2227.01 6.9034e-16
2237.29 8.1295e-16
2242.45 7.764e-16
2252.8 6.7182e-16
2263.2 6.5377e-16
2273.64 6.896e-16
2284.14 8.1427e-16
2294.68 7.144e-16
2305.27 7.9088e-16
2315.91 7.0678e-16
2326.6 5.6946e-16
2337.34 5.9243e-16
2342.73 5.0667e-16
2353.54 6.7437e-16
2364.41 5.2369e-16
2375.32 5.8244e-16
2386.28 4.7253e-16
2397.3 5.2676e-16
2402.83 5.1488e-16
2413.92 5.5066e-16
2425.06 7.2956e-16
2436.25 7.2652e-16
2447.5 8.2876e-16
2453.14 8.6202e-16
2464.46 7.6331e-16
2475.84 7.0127e-16
2487.27 5.4085e-16
2493.0 5.8099e-16
2504.51 7.8587e-16
2510.28 4.994e-16
2516.07 4.6832e-16
2527.68 4.7177e-16
2533.51 6.0789e-16
2545.2 6.2232e-16
2556.95 9.8901e-16
2562.85 7.7857e-16
2574.67 9.5607e-16
2586.56 8.6832e-16
2592.52 8.0311e-16
2604.49 7.2272e-16
2616.51 6.7478e-16
2622.54 8.3997e-16
2634.65 1.3504e-15
2646.81 1.7484e-15
2652.91 2.4646e-15
2665.15 1.5451e-15
2677.46 1.7464e-15
2683.63 2.0335e-15
2696.01 1.484e-15
2702.23 1.8388e-15
2714.7 1.3482e-15
2727.23 1.0543e-15
2733.52 1.3337e-15
2746.14 8.3224e-16
2752.47 1.0749e-15
2765.17 1.3726e-15
2777.94 1.4513e-15
2784.34 9.3727e-16
2797.19 5.2732e-16
2803.64 6.0558e-16
2816.58 1.2924e-15
2823.07 1.8259e-15
2836.1 1.7049e-15
2842.64 1.2156e-15
2855.76 7.6915e-16
2862.35 1.6831e-15
2875.56 2.3731e-15
2882.19 2.1599e-15
2895.49 2.7267e-15
2908.86 3.7399e-15
2929.02 3.2298e-15
2949.32 2.9546e-15
2969.77 3.0891e-15
2990.35 3.1344e-15
3011.08 3.108e-15
3031.95 3.387e-15
3052.97 3.5249e-15
3067.06 3.9389e-15
3088.32 3.8257e-15
3109.73 4.5714e-15
3131.28 4.1821e-15
3152.99 4.2339e-15
3167.54 4.7094e-15
3189.5 4.0116e-15
3211.61 4.4531e-15
3226.43 3.7059e-15
3248.79 5.3982e-15
3271.31 6.3768e-15
3286.42 6.2639e-15
3309.19 5.797e-15
3324.47 5.501e-15
3332.13 5.6048e-15
3339.81 4.8717e-15
3347.51 6.3504e-15
3355.23 6.1791e-15
3362.97 3.7761e-15
3370.72 4.945e-15
3378.49 5.8788e-15
3386.27 5.6808e-15
3394.08 5.5659e-15
3401.91 6.9288e-15
3409.75 5.7914e-15
3417.61 4.8967e-15
3425.49 6.138e-15
3433.38 7.0819e-15
3441.3 5.537e-15
3449.23 5.1689e-15
3457.18 6.1168e-15
3465.15 5.2559e-15
3473.14 6.558e-15
3481.15 5.6741e-15
3489.17 6.2521e-15
3497.22 5.561e-15
3505.28 7.084e-15
3513.36 6.0173e-15
3521.46 7.1702e-15
3529.57 4.8379e-15
3537.71 6.773e-15
3545.87 6.8693e-15
3554.04 7.162e-15
3562.23 6.3557e-15
3570.44 4.9807e-15
3578.68 5.8267e-15
3586.92 4.0696e-15
3595.19 6.2327e-15
3603.48 7.7412e-15
3611.79 5.1161e-15
3620.11 6.6999e-15
3628.46 8.1695e-15
3636.82 5.9064e-15
3645.21 7.7528e-15
3653.61 6.8169e-15
3662.03 9.5437e-15
3670.47 8.4693e-15
3678.94 8.7898e-15
3687.42 7.8183e-15
3695.92 8.9381e-15
3704.44 9.1913e-15
3712.98 6.3315e-15
3721.54 6.6626e-15
3730.11 7.4606e-15
3738.72 3.7836e-15
3747.33 5.3832e-15
3755.97 6.953e-15
3764.63 6.6422e-15
3773.31 6.7522e-15
3782.01 8.5031e-15
3790.72 6.8503e-15
3799.46 5.8056e-15
3800.75 9.3892e-15
3802.48 9.1246e-15
3804.21 8.2777e-15
3805.94 7.6898e-15
3807.67 8.5602e-15
3809.4 8.1648e-15
3811.13 7.3329e-15
3812.87 8.3261e-15
3814.6 7.6599e-15
3816.33 7.8215e-15
3818.06 7.4672e-15
3819.79 4.9867e-15
3821.52 4.9266e-15
3823.25 6.2196e-15
3824.98 6.68e-15
3826.71 5.7645e-15
3828.44 5.3749e-15
3830.17 6.233e-15
3831.9 4.3793e-15
3833.63 4.9592e-15
3835.36 5.3393e-15
3837.09 4.2648e-15
3838.82 4.8088e-15
3840.56 5.7284e-15
3842.29 7.1276e-15
3844.02 7.6204e-15
3845.75 5.9738e-15
3847.48 7.6208e-15
3849.21 8.8171e-15
3850.94 6.0602e-15
3852.67 6.3043e-15
3854.4 6.1038e-15
3856.13 5.9472e-15
3857.86 6.0293e-15
3859.59 6.2049e-15
3861.32 5.3319e-15
3863.05 6.3885e-15
3864.78 7.8054e-15
3866.51 8.1305e-15
3868.25 7.2286e-15
3869.98 5.8861e-15
3871.71 5.6242e-15
3873.44 5.6865e-15
3875.17 6.3762e-15
3876.9 5.9326e-15
3878.63 5.854e-15
3880.36 6.798e-15
3882.09 7.0219e-15
3883.82 6.9271e-15
3885.55 6.2678e-15
3887.28 6.666e-15
3889.01 6.6859e-15
3890.74 8.08e-15
3892.47 8.3786e-15
3894.2 8.6384e-15
3895.93 7.5641e-15
3897.67 7.9141e-15
3899.4 8.5436e-15
3901.13 7.6237e-15
3902.86 7.5085e-15
3904.59 7.5289e-15
3906.32 9.3433e-15
3908.05 9.454e-15
3909.78 8.9398e-15
3911.51 8.1111e-15
3913.24 8.3378e-15
3914.97 8.9453e-15
3916.7 9.2383e-15
3918.43 8.2443e-15
3920.16 7.9549e-15
3921.89 7.6225e-15
3923.62 7.6174e-15
3925.36 6.6572e-15
3927.09 5.353e-15
3928.82 4.881e-15
3930.55 3.5895e-15
3932.28 3.9351e-15
3934.01 3.2849e-15
3935.74 3.6072e-15
3937.47 3.6204e-15
3939.2 3.4468e-15
3940.93 5.1077e-15
3942.66 5.0501e-15
3944.39 5.6491e-15
3946.12 6.7345e-15
3947.85 6.7996e-15
3949.58 8.5556e-15
3951.31 8.8953e-15
3953.05 7.9355e-15
3954.78 8.4961e-15
3956.51 8.77e-15
3958.24 8.6448e-15
3959.97 7.4735e-15
3961.7 6.7393e-15
3963.43 5.1795e-15
3965.16 5.1604e-15
3966.89 5.3916e-15
3968.62 4.3745e-15
3970.35 4.3287e-15
3972.08 5.0772e-15
3973.81 6.1651e-15
3975.54 7.569e-15
3977.27 7.702e-15
3979.0 8.7244e-15
3980.74 9.7946e-15
3982.47 1.0044e-14
3984.2 1.0264e-14
3985.93 1.123e-14
3987.66 1.148e-14
3989.39 1.159e-14
3991.12 1.0597e-14
3992.85 1.0579e-14
3994.58 1.0808e-14
3996.31 1.106e-14
3998.04 1.1292e-14
3999.77 1.0818e-14
4001.5 1.1823e-14
4003.23 1.2898e-14
4004.96 1.2084e-14
4006.69 1.2202e-14
4008.43 1.2587e-14
4010.16 1.2234e-14
4011.89 1.1663e-14
4013.62 1.2654e-14
4015.35 1.3524e-14
4017.08 1.2479e-14
4018.81 1.2492e-14
4020.54 1.2514e-14
4022.27 1.303e-14
4024.0 1.3209e-14
4025.73 1.2625e-14
4027.46 1.215e-14
4029.19 1.2166e-14
4030.92 1.1903e-14
4032.65 1.1334e-14
4034.38 1.1967e-14
4036.11 1.2746e-14
4037.85 1.3059e-14
4039.58 1.3406e-14
4041.31 1.3198e-14
4043.04 1.2509e-14
4044.77 1.2055e-14
4046.5 1.1567e-14
4048.23 1.2372e-14
4049.96 1.2419e-14
4051.69 1.2877e-14
4053.42 1.3002e-14
4055.15 1.256e-14
4056.88 1.1696e-14
4058.61 1.163e-14
4060.34 1.1846e-14
4062.07 1.1563e-14
4063.8 1.1473e-14
4065.54 1.272e-14
4067.27 1.2553e-14
4069.0 1.1899e-14
4070.73 1.181e-14
4072.46 1.2383e-14
4074.19 1.2577e-14
4075.92 1.1871e-14
4077.65 1.1949e-14
4079.38 1.3116e-14
4081.11 1.3834e-14
4082.84 1.3478e-14
4084.57 1.3403e-14
4086.3 1.3714e-14
4088.03 1.3746e-14
4089.76 1.4012e-14
4091.49 1.4545e-14
4093.23 1.4261e-14
4094.96 1.308e-14
4096.69 1.2482e-14
4098.42 1.1642e-14
4100.15 1.1524e-14
4101.88 1.2005e-14
4103.61 1.2272e-14
4105.34 1.254e-14
4107.07 1.311e-14
4108.8 1.3397e-14
4110.53 1.3482e-14
4112.26 1.3331e-14
4113.99 1.2686e-14
4115.72 1.3229e-14
4117.45 1.3542e-14
4119.18 1.3572e-14
4120.92 1.369e-14
4122.65 1.3585e-14
4124.38 1.3089e-14
4126.11 1.3764e-14
4127.84 1.4048e-14
4129.57 1.3196e-14
4131.3 1.2323e-14
4133.03 1.2667e-14
4134.76 1.2969e-14
4136.49 1.2876e-14
4138.22 1.3228e-14
4139.95 1.3574e-14
4141.68 1.312e-14
4143.41 1.2437e-14
4145.14 1.2371e-14
4146.87 1.201e-14
4148.61 1.2495e-14
4150.34 1.3022e-14
4152.07 1.1844e-14
4153.8 1.2085e-14
4155.53 1.2422e-14
4157.26 1.2198e-14
4158.99 1.3058e-14
4160.72 1.3179e-14
4162.45 1.3451e-14
4164.18 1.41e-14
4165.91 1.3457e-14
4167.64 1.267e-14
4169.37 1.2613e-14
4171.1 1.2801e-14
4172.83 1.2686e-14
4174.56 1.271e-14
4176.3 1.2381e-14
4178.03 1.1946e-14
4179.76 1.2053e-14
4181.49 1.2747e-14
4183.22 1.2951e-14
4184.95 1.2571e-14
4186.68 1.3216e-14
4188.41 1.3432e-14
4190.14 1.3191e-14
4191.87 1.3483e-14
4193.6 1.3157e-14
4195.33 1.2664e-14
4197.06 1.2575e-14
4198.79 1.3015e-14
4200.52 1.318e-14
4202.25 1.2908e-14
4203.99 1.3479e-14
4205.72 1.3908e-14
4207.45 1.3812e-14
4209.18 1.3836e-14
4210.91 1.3692e-14
4212.64 1.3326e-14
4214.37 1.3572e-14
4216.1 1.3872e-14
4217.83 1.3811e-14
4219.56 1.4271e-14
4221.29 1.4028e-14
4223.02 1.2971e-14
4224.75 1.2718e-14
4226.48 1.2186e-14
4228.21 1.1623e-14
4229.94 1.2329e-14
4231.67 1.3376e-14
4233.41 1.3632e-14
4235.14 1.3927e-14
4236.87 1.4503e-14
4238.6 1.4026e-14
4240.33 1.4561e-14
4242.06 1.4296e-14
4243.79 1.2279e-14
4245.52 1.2058e-14
4247.25 1.245e-14
4248.98 1.2167e-14
4250.71 1.2932e-14
4252.44 1.3683e-14
4254.17 1.3481e-14
4255.9 1.3458e-14
4257.63 1.3401e-14
4259.36 1.3373e-14
4261.09 1.3694e-14
4262.83 1.3463e-14
4264.56 1.4304e-14
4266.29 1.4437e-14
4268.02 1.3918e-14
4269.75 1.3798e-14
4271.48 1.3323e-14
4273.21 1.2776e-14
4274.94 1.2988e-14
4276.67 1.3484e-14
4278.4 1.3173e-14
4280.13 1.3526e-14
4281.86 1.3743e-14
4283.59 1.3307e-14
4285.32 1.3451e-14
4287.05 1.244e-14
4288.78 1.2455e-14
4290.52 1.2904e-14
4292.25 1.2e-14
4293.98 1.2126e-14
4295.71 1.2071e-14
4297.44 1.1515e-14
4299.17 1.0984e-14
4300.9 1.0653e-14
4302.63 9.8915e-15
4304.36 9.509e-15
4306.09 9.487e-15
4307.82 9.6777e-15
4309.55 1.0418e-14
4311.28 1.1223e-14
4313.01 1.2446e-14
4314.74 1.32e-14
4316.47 1.4563e-14
4318.21 1.5324e-14
4319.94 1.5267e-14
4321.67 1.43e-14
4323.4 1.3847e-14
4325.13 1.3843e-14
4326.86 1.4192e-14
4328.59 1.4623e-14
4330.32 1.483e-14
4332.05 1.5322e-14
4333.78 1.5942e-14
4335.51 1.5375e-14
4337.24 1.4688e-14
4338.97 1.4477e-14
4340.7 1.4055e-14
4342.43 1.4289e-14
4344.16 1.4588e-14
4345.9 1.4699e-14
4347.63 1.446e-14
4349.36 1.5139e-14
4351.09 1.5423e-14
4352.82 1.5374e-14
4354.55 1.5635e-14
4356.28 1.4978e-14
4358.01 1.5313e-14
4359.74 1.5854e-14
4361.47 1.5643e-14
4363.2 1.5874e-14
4364.93 1.5581e-14
4366.66 1.5528e-14
4368.39 1.5189e-14
4370.12 1.4629e-14
4371.85 1.4967e-14
4373.58 1.501e-14
4375.32 1.4918e-14
4377.05 1.4833e-14
4378.78 1.4309e-14
4380.51 1.3866e-14
4382.24 1.3301e-14
4383.97 1.296e-14
4385.7 1.2859e-14
4387.43 1.3262e-14
4389.16 1.3731e-14
4390.89 1.3955e-14
4392.62 1.4175e-14
4394.35 1.4956e-14
4396.08 1.5569e-14
4397.81 1.5283e-14
4399.54 1.4973e-14
4401.27 1.4623e-14
4403.01 1.4231e-14
4404.74 1.5089e-14
4406.47 1.5339e-14
4408.2 1.4897e-14
4409.93 1.5129e-14
4411.66 1.5417e-14
4413.39 1.5662e-14
4415.12 1.5937e-14
4416.85 1.6126e-14
4418.58 1.6353e-14
4420.31 1.6543e-14
4422.04 1.6587e-14
4423.77 1.6247e-14
4425.5 1.5975e-14
4427.23 1.6399e-14
4428.96 1.6034e-14
4430.7 1.5318e-14
4432.43 1.6152e-14
4434.16 1.6353e-14
4435.89 1.6192e-14
4437.62 1.6827e-14
4439.35 1.6976e-14
4441.08 1.6921e-14
4442.81 1.7049e-14
4444.54 1.7363e-14
4446.27 1.7206e-14
4448.0 1.7253e-14
4449.73 1.7511e-14
4451.46 1.7329e-14
4453.19 1.6682e-14
4454.92 1.6495e-14
4456.65 1.6281e-14
4458.39 1.5563e-14
4460.12 1.5425e-14
4461.85 1.5429e-14
4463.58 1.6553e-14
4465.31 1.7212e-14
4467.04 1.7072e-14
4468.77 1.7314e-14
4470.5 1.758e-14
4472.23 1.818e-14
4473.96 1.7954e-14
4475.69 1.8349e-14
4477.42 1.8839e-14
4479.15 1.8966e-14
4480.88 1.8675e-14
4482.61 1.8068e-14
4484.34 1.841e-14
4486.08 1.839e-14
4487.81 1.8145e-14
4489.54 1.8031e-14
4491.27 1.7911e-14
4493.0 1.7917e-14
4494.73 1.8707e-14
4496.46 1.9139e-14
4498.19 1.8797e-14
4499.92 1.9185e-14
4501.65 1.9593e-14
4503.38 1.9625e-14
4505.11 1.9918e-14
4506.84 2.0199e-14
4508.57 2.0392e-14
4510.3 2.03e-14
4512.03 1.9506e-14
4513.76 1.9511e-14
4515.49 1.9586e-14
4517.23 1.9316e-14
4518.96 1.885e-14
4520.69 1.8314e-14
4522.42 1.8903e-14
4524.15 1.8698e-14
4525.88 1.7796e-14
4527.61 1.7314e-14
4529.34 1.7035e-14
4531.07 1.6934e-14
4532.8 1.7639e-14
4534.53 1.8087e-14
4536.26 1.8122e-14
4537.99 1.8469e-14
4539.72 1.8894e-14
4541.45 1.8942e-14
4543.18 1.8766e-14
4544.92 1.8551e-14
4546.65 1.8563e-14
4548.38 1.8639e-14
4550.11 1.8887e-14
4551.84 1.9169e-14
4553.57 1.9347e-14
4555.3 1.9628e-14
4557.03 2.0067e-14
4558.76 2.0006e-14
4560.49 2.0229e-14
4562.22 2.0225e-14
4563.95 1.9987e-14
4565.68 2.024e-14
4567.41 2.0266e-14
4569.14 2.0384e-14
4570.87 2.0428e-14
4572.61 2.0316e-14
4574.34 1.9836e-14
4576.07 2.0534e-14
4577.8 2.0666e-14
4579.53 1.9707e-14
4581.26 1.9399e-14
4582.99 1.9624e-14
4584.72 1.9612e-14
4586.45 1.9651e-14
4588.18 1.9792e-14
4589.91 1.9639e-14
4591.64 1.9706e-14
4593.37 1.9613e-14
4595.1 1.911e-14
4596.83 1.9595e-14
4598.56 2.0053e-14
4600.3 1.9812e-14
4602.03 1.9678e-14
4603.76 1.9858e-14
4605.49 2.0035e-14
4607.22 2.0516e-14
4608.95 2.0815e-14
4610.68 2.1163e-14
4612.41 2.1357e-14
4614.14 2.0934e-14
4615.87 2.0988e-14
4617.6 2.1554e-14
4619.33 2.1182e-14
4621.06 2.0839e-14
4622.79 2.0895e-14
4624.52 2.1298e-14
4626.25 2.101e-14
4627.99 2.1183e-14
4629.72 2.1358e-14
4631.45 2.1173e-14
4633.18 2.0783e-14
4634.91 2.0018e-14
4636.64 1.9692e-14
4638.37 1.9753e-14
4640.1 1.9778e-14
4641.83 1.9761e-14
4643.56 1.9301e-14
4645.29 1.9169e-14
4647.02 1.9245e-14
4648.75 1.8865e-14
4650.48 1.9058e-14
4652.21 1.9866e-14
4653.94 1.9191e-14
4655.68 1.9769e-14
4657.41 2.0265e-14
4659.14 1.9753e-14
4660.87 1.9755e-14
4662.6 1.9198e-14
4664.33 1.8837e-14
4666.06 1.8839e-14
4667.79 1.861e-14
4669.52 1.8499e-14
4671.25 1.8509e-14
4672.98 1.8971e-14
4674.71 1.9061e-14
4676.44 1.9167e-14
4678.17 1.9143e-14
4679.9 1.9296e-14
4681.63 1.951e-14
4683.36 1.9108e-14
4685.1 1.9136e-14
4686.83 1.9478e-14
4688.56 1.9762e-14
4690.29 1.9445e-14
4692.02 1.9152e-14
4693.75 1.9329e-14
4695.48 1.9736e-14
4697.21 1.9365e-14
4698.94 1.8872e-14
4700.67 1.8951e-14
4702.4 1.9253e-14
4704.13 1.8872e-14
4705.86 1.8273e-14
4707.59 1.845e-14
4709.32 1.9128e-14
4711.05 1.9446e-14
4712.79 1.9691e-14
4714.52 1.9573e-14
4716.25 1.944e-14
4717.98 1.9999e-14
4719.71 2.0637e-14
4721.44 2.062e-14
4723.17 2.0783e-14
4724.9 2.0437e-14
4726.63 1.97e-14
4728.36 1.9621e-14
4730.09 1.9937e-14
4731.82 2.0179e-14
4733.55 1.9702e-14
4735.28 1.952e-14
4737.01 1.9999e-14
4738.74 2.0385e-14
4740.48 2.0761e-14
4742.21 2.0691e-14
4743.94 2.0724e-14
4745.67 2.0888e-14
4747.4 2.1056e-14
4749.13 2.0908e-14
4750.86 2.0119e-14
4752.59 2.0847e-14
4754.32 2.0558e-14
4756.05 2.0122e-14
4757.78 1.9565e-14
4759.51 1.9714e-14
4761.24 1.9721e-14
4762.97 1.9366e-14
4764.7 1.9213e-14
4766.43 1.9273e-14
4768.17 1.9346e-14
4769.9 1.9534e-14
4771.63 2.0341e-14
4773.36 2.0483e-14
4775.09 2.0239e-14
4776.82 2.0043e-14
4778.55 2.0084e-14
4780.28 2.0043e-14
4782.01 1.9737e-14
4783.74 1.9948e-14
4785.47 1.9946e-14
4787.2 1.9552e-14
4788.93 1.9582e-14
4790.66 2.0013e-14
4792.39 2.0628e-14
4794.12 2.0522e-14
4795.86 2.0561e-14
4797.59 2.0485e-14
4799.32 2.0505e-14
4801.05 2.0623e-14
4802.78 2.0814e-14
4804.51 2.0288e-14
4806.24 2.0205e-14
4807.97 2.0332e-14
4809.7 2.0787e-14
4811.43 2.0964e-14
4813.16 2.1009e-14
4814.89 2.05e-14
4816.62 2.1023e-14
4818.35 2.1425e-14
4820.08 2.1199e-14
4821.81 2.0555e-14
4823.55 2.0392e-14
4825.28 2.0428e-14
4827.01 2.0069e-14
4828.74 2.0156e-14
4830.47 2.0229e-14
4832.2 1.9746e-14
4833.93 2.0128e-14
4835.66 2.0088e-14
4837.39 2.0054e-14
4839.12 1.9981e-14
4840.85 1.9917e-14
4842.58 1.9839e-14
4844.31 2.0026e-14
4846.04 1.9554e-14
4847.77 2.0254e-14
4849.5 1.9887e-14
4851.24 1.9643e-14
4852.97 1.9015e-14
4854.7 1.8588e-14
4856.43 1.8116e-14
4858.16 1.7649e-14
4859.89 1.7501e-14
4861.62 1.6882e-14
4863.35 1.6773e-14
4865.08 1.7581e-14
4866.81 1.7785e-14
4868.54 1.8322e-14
4870.27 1.8327e-14
4872.0 1.8224e-14
4873.73 1.8552e-14
4875.46 1.8346e-14
4877.19 1.8752e-14
4878.92 1.8999e-14
4880.66 1.9508e-14
4882.39 1.8978e-14
4884.12 1.912e-14
4885.85 1.9344e-14
4887.58 1.9031e-14
4889.31 1.9063e-14
4891.04 1.9187e-14
4892.77 2.0123e-14
4894.5 2.0228e-14
4896.23 2.0484e-14
4897.96 2.0835e-14
4899.69 2.0579e-14
4901.42 2.0792e-14
4903.15 2.0498e-14
4904.88 2.023e-14
4906.61 2.0445e-14
4908.34 2.0519e-14
4910.08 2.0136e-14
4911.81 2.0165e-14
4913.54 1.9607e-14
4915.27 1.95e-14
4917.0 1.9504e-14
4918.73 1.9422e-14
4920.46 1.8932e-14
4922.19 1.8344e-14
4923.92 1.9327e-14
4925.65 1.946e-14
4927.38 1.9898e-14
4929.11 2.0333e-14
4930.84 2.0497e-14
4932.57 2.0746e-14
4934.3 2.0795e-14
4936.03 2.0733e-14
4937.77 2.0322e-14
4939.5 2.0516e-14
4941.23 2.0534e-14
4942.96 2.0623e-14
4944.69 2.0954e-14
4946.42 2.1086e-14
4948.15 2.0983e-14
4949.88 2.1382e-14
4951.61 2.1137e-14
4953.34 2.0841e-14
4955.07 2.075e-14
4956.8 2.0145e-14
4958.53 1.9736e-14
4960.26 1.9783e-14
4961.99 1.982e-14
4963.72 1.9568e-14
4965.46 1.9903e-14
4967.19 2.0322e-14
4968.92 2.0396e-14
4970.65 2.0303e-14
4972.38 2.07e-14
4974.11 2.0419e-14
4975.84 2.0051e-14
4977.57 1.9763e-14
4979.3 1.9274e-14
4981.03 1.8667e-14
4982.76 1.9023e-14
4984.49 1.9184e-14
4986.22 1.911e-14
4987.95 1.9441e-14
4989.68 1.9948e-14
4991.41 2.0086e-14
4993.15 1.975e-14
4994.88 1.9459e-14
4996.61 1.9368e-14
4998.34 1.9452e-14
5000.07 1.945e-14
5001.8 1.9333e-14
5003.53 1.9186e-14
5005.26 1.9003e-14
5006.99 1.8465e-14
5008.72 1.8646e-14
5010.45 1.8501e-14
5012.18 1.838e-14
5013.91 1.821e-14
5015.64 1.8666e-14
5017.37 1.891e-14
5019.1 1.8782e-14
5020.83 1.8861e-14
5022.57 1.8664e-14
5024.3 1.8911e-14
5026.03 1.9454e-14
5027.76 1.9772e-14
5029.49 1.9714e-14
5031.22 1.9736e-14
5032.95 1.9781e-14
5034.68 1.9572e-14
5036.41 1.8842e-14
5038.14 1.8579e-14
5039.87 1.8814e-14
5041.6 1.8798e-14
5043.33 1.8617e-14
5045.06 1.8689e-14
5046.79 1.9183e-14
5048.52 1.9542e-14
5050.26 1.9799e-14
5051.99 2.0051e-14
5053.72 1.9623e-14
5055.45 1.9506e-14
5057.18 2.0397e-14
5058.91 2.0516e-14
5060.64 2.0657e-14
5062.37 2.0269e-14
5064.1 1.9691e-14
5065.83 1.9526e-14
5067.56 1.9365e-14
5069.29 1.9676e-14
5071.02 1.9026e-14
5072.75 1.8493e-14
5074.48 1.8697e-14
5076.21 1.8663e-14
5077.95 1.8551e-14
5079.68 1.8275e-14
5081.41 1.808e-14
5083.14 1.8347e-14
5084.87 1.8729e-14
5086.6 1.8684e-14
5088.33 1.9126e-14
5090.06 1.9598e-14
5091.79 1.9654e-14
5093.52 1.9422e-14
5095.25 1.9303e-14
5096.98 1.9203e-14
5098.71 1.8961e-14
5100.44 1.8394e-14
5102.17 1.8669e-14
5103.9 1.9041e-14
5105.64 1.874e-14
5107.37 1.837e-14
5109.1 1.8472e-14
5110.83 1.8941e-14
5112.56 1.9383e-14
5114.29 1.9597e-14
5116.02 1.9863e-14
5117.75 1.9249e-14
5119.48 1.9037e-14
5121.21 1.8561e-14
5122.94 1.8751e-14
5124.67 1.8093e-14
5126.4 1.7877e-14
5128.13 1.8321e-14
5129.86 1.8472e-14
5131.59 1.8235e-14
5133.32 1.8401e-14
5135.06 1.8651e-14
5136.79 1.8434e-14
5138.52 1.8508e-14
5140.25 1.8746e-14
5141.98 1.8024e-14
5143.71 1.8031e-14
5145.44 1.8252e-14
5147.17 1.7779e-14
5148.9 1.7984e-14
5150.63 1.8287e-14
5152.36 1.7833e-14
5154.09 1.8574e-14
5155.82 1.8614e-14
5157.55 1.7982e-14
5159.28 1.7751e-14
5161.01 1.7654e-14
5162.74 1.7002e-14
5164.48 1.6326e-14
5166.21 1.5768e-14
5167.94 1.4556e-14
5169.67 1.3992e-14
5171.4 1.4213e-14
5173.13 1.4473e-14
5174.86 1.4587e-14
5176.59 1.4691e-14
5178.32 1.5065e-14
5180.05 1.5475e-14
5181.78 1.5269e-14
5183.51 1.5374e-14
5185.24 1.5552e-14
5186.97 1.6272e-14
5188.7 1.702e-14
5190.43 1.7633e-14
5192.17 1.7904e-14
5193.9 1.7844e-14
5195.63 1.8148e-14
5197.36 1.8602e-14
5199.09 1.8374e-14
5200.82 1.8272e-14
5202.55 1.7901e-14
5204.28 1.78e-14
5206.01 1.7439e-14
5207.74 1.7387e-14
5209.47 1.7308e-14
5211.2 1.7676e-14
5212.93 1.8268e-14
5214.66 1.9129e-14
5216.39 1.923e-14
5218.12 1.9542e-14
5219.86 1.926e-14
5221.59 1.9298e-14
5223.32 1.9452e-14
5225.05 1.9e-14
5226.78 1.876e-14
5228.51 1.9289e-14
5230.24 1.9976e-14
5231.97 1.9882e-14
5233.7 2.005e-14
5235.43 2.014e-14
5237.16 2.0378e-14
5238.89 2.0526e-14
5240.62 2.0271e-14
5242.35 2.0342e-14
5244.08 2.0172e-14
5245.81 2.0477e-14
5247.55 2.0313e-14
5249.28 2.0094e-14
5251.01 1.952e-14
5252.74 2.0248e-14
5254.47 2.0146e-14
5256.2 1.9993e-14
5257.93 1.9751e-14
5259.66 1.9121e-14
5261.39 1.9099e-14
5263.12 1.8411e-14
5264.85 1.777e-14
5266.58 1.7763e-14
5268.31 1.7609e-14
5270.04 1.7981e-14
5271.77 1.8099e-14
5273.5 1.8526e-14
5275.24 1.9244e-14
5276.97 1.9668e-14
5278.7 1.9826e-14
5280.43 1.9995e-14
5282.16 2.0594e-14
5283.89 2.0858e-14
5285.62 2.0961e-14
5287.35 2.1081e-14
5289.08 2.1194e-14
5290.81 2.1121e-14
5292.54 2.1371e-14
5294.27 2.1295e-14
5296.0 2.0988e-14
5297.73 2.0495e-14
5299.46 2.0421e-14
5301.19 2.1147e-14
5302.93 2.1417e-14
5304.66 2.1067e-14
5306.39 2.1603e-14
5308.12 2.2133e-14
5309.85 2.2221e-14
5311.58 2.1922e-14
5313.31 2.1743e-14
5315.04 2.2212e-14
5316.77 2.1942e-14
5318.5 2.1081e-14
5320.23 2.1287e-14
5321.96 2.1459e-14
5323.69 2.0994e-14
5325.42 1.9564e-14
5327.15 1.9274e-14
5328.88 1.9769e-14
5330.62 2.0182e-14
5332.35 2.0255e-14
5334.08 1.9961e-14
5335.81 2.0282e-14
5337.54 2.0739e-14
5339.27 2.0737e-14
5341.0 2.0873e-14
5342.73 2.0769e-14
5344.46 2.0701e-14
5346.19 2.0998e-14
5347.92 2.1269e-14
5349.65 2.0888e-14
5351.38 2.1509e-14
5353.11 2.2093e-14
5354.84 2.2158e-14
5356.57 2.188e-14
5358.3 2.205e-14
5360.04 2.2341e-14
5361.77 2.1833e-14
5363.5 2.1474e-14
5365.23 2.1406e-14
5366.96 2.0974e-14
5368.69 2.0643e-14
5370.42 2.0901e-14
5372.15 2.0983e-14
5373.88 2.1119e-14
5375.61 2.1347e-14
5377.34 2.1736e-14
5379.07 2.1738e-14
5380.8 2.2066e-14
5382.53 2.1996e-14
5384.26 2.1919e-14
5385.99 2.1548e-14
5387.73 2.1003e-14
5389.46 2.1222e-14
5391.19 2.08e-14
5392.92 2.0581e-14
5394.65 2.0406e-14
5396.38 2.0535e-14
5398.11 2.0182e-14
5399.84 2.0581e-14
5401.57 2.0289e-14
5403.3 1.9981e-14
5405.03 1.976e-14
5406.76 2.0009e-14
5408.49 2.0334e-14
5410.22 2.0718e-14
5411.95 2.1139e-14
5413.68 2.1037e-14
5415.42 2.1606e-14
5417.15 2.1471e-14
5418.88 2.1676e-14
5420.61 2.1658e-14
5422.34 2.185e-14
5424.07 2.1321e-14
5425.8 2.1373e-14
5427.53 2.1031e-14
5429.26 2.0982e-14
5430.99 2.1024e-14
5432.72 2.1048e-14
5434.45 2.1075e-14
5436.18 2.1102e-14
5437.91 2.1129e-14
5439.64 2.1156e-14
5441.37 2.1183e-14
5443.11 2.121e-14
5444.84 2.1236e-14
5446.57 2.127e-14
5448.3 2.1198e-14
5450.03 2.0659e-14
5451.76 2.0535e-14
5453.49 2.104e-14
5455.22 2.1001e-14
5456.95 2.1074e-14
5458.68 2.0711e-14
5460.41 2.0841e-14
5462.14 2.1143e-14
5463.87 2.0946e-14
5465.6 2.0475e-14
5467.33 2.0463e-14
5469.06 2.0807e-14
5470.8 2.0428e-14
5472.53 2.0202e-14
5474.26 2.0497e-14
5475.99 2.0451e-14
5477.72 2.0057e-14
5479.45 2.0101e-14
5481.18 1.9992e-14
5482.91 2.0075e-14
5484.64 2.0537e-14
5486.37 2.0995e-14
5488.1 2.1016e-14
5489.83 2.1227e-14
5491.56 2.1284e-14
5493.29 2.0729e-14
5495.02 2.0576e-14
5496.75 2.093e-14
5498.49 2.1037e-14
5500.22 2.0848e-14
5501.95 2.016e-14
5503.68 2.0601e-14
5505.41 2.0832e-14
5507.14 2.0252e-14
5508.87 2.0492e-14
5510.6 2.0329e-14
5512.33 2.018e-14
5514.06 2.0237e-14
5515.79 2.0184e-14
5517.52 2.0644e-14
5519.25 2.1057e-14
5520.98 2.1009e-14
5522.71 2.087e-14
5524.44 2.0665e-14
5526.17 2.0444e-14
5527.91 2.0251e-14
5529.64 2.0399e-14
5531.37 2.0455e-14
5533.1 2.0341e-14
5534.83 2.0433e-14
5536.56 2.0668e-14
5538.29 2.0198e-14
5540.02 2.0436e-14
5541.75 2.0584e-14
5543.48 2.0638e-14
5545.21 2.1176e-14
5546.94 2.1478e-14
5548.67 2.1199e-14
5550.4 2.135e-14
5552.13 2.139e-14
5553.86 2.1291e-14
5555.6 2.1125e-14
5557.33 2.1076e-14
5559.06 2.0678e-14
5560.79 2.0667e-14
5562.52 2.102e-14
5564.25 2.1043e-14
5565.98 2.1047e-14
5567.71 2.1025e-14
5569.44 2.0952e-14
5571.17 2.0757e-14
5572.9 2.0926e-14
5574.63 2.0952e-14
5576.36 2.0732e-14
5578.09 2.0693e-14
5579.82 2.0614e-14
5581.55 2.065e-14
5583.28 2.0346e-14
5585.02 2.0161e-14
5586.75 2.0463e-14
5588.48 2.0337e-14
5590.21 1.9598e-14
5591.94 1.9921e-14
5593.67 2.0418e-14
5595.4 2.0163e-14
5597.13 2.0046e-14
5598.86 1.9987e-14
5600.59 2.013e-14
5602.32 2.0402e-14
5604.05 2.0608e-14
5605.78 2.0657e-14
5607.51 2.0833e-14
5609.24 2.1116e-14
5610.97 2.0949e-14
5612.71 2.0598e-14
5614.44 2.0591e-14
5616.17 2.0473e-14
5617.9 2.0233e-14
5619.63 1.9615e-14
5621.36 1.9621e-14
5623.09 2.0247e-14
5624.82 2.0108e-14
5626.55 2.0342e-14
5628.28 2.0417e-14
5630.01 2.0367e-14
5631.74 2.0246e-14
5633.47 2.0336e-14
5635.2 2.0757e-14
5636.93 2.0411e-14
5638.66 2.0145e-14
5640.4 1.9743e-14
5642.13 2.037e-14
5643.86 2.0317e-14
5645.59 2.1207e-14
5647.32 2.1487e-14
5649.05 2.1053e-14
5650.78 2.1154e-14
5652.51 2.1043e-14
5654.24 2.0327e-14
5655.97 2.0202e-14
5657.7 2.0653e-14
5659.43 2.0397e-14
5661.16 2.0509e-14
5662.89 2.0391e-14
5664.62 2.0484e-14
5666.35 2.0925e-14
5668.09 2.1267e-14
5669.82 2.1371e-14
5671.55 2.1205e-14
5673.28 2.1391e-14
5675.01 2.1549e-14
5676.74 2.1408e-14
5678.47 2.1749e-14
5680.2 2.1378e-14
5681.93 2.1447e-14
5683.66 2.1242e-14
5685.39 2.1008e-14
5687.12 2.0993e-14
5688.85 2.1032e-14
5690.58 2.1113e-14
5692.31 2.1028e-14
5694.04 2.1114e-14
5695.77 2.1131e-14
5697.51 2.1533e-14
5699.24 2.0812e-14
5700.97 2.0946e-14
5702.7 2.0893e-14
5704.43 1.9971e-14
5706.16 2.0194e-14
5707.89 2.046e-14
5709.62 2.0274e-14
5711.35 2.0618e-14
5713.08 2.0281e-14
5714.81 2.0638e-14
5716.54 2.1088e-14
5718.27 2.1207e-14
5720.0 2.1446e-14
5721.73 2.2146e-14
5723.46 2.2093e-14
5725.2 2.1917e-14
5726.93 2.2043e-14
5728.66 2.1798e-14
5730.39 2.1729e-14
5732.12 2.1716e-14
5733.85 2.1693e-14
5735.58 2.167e-14
5737.31 2.1648e-14
5739.04 2.1626e-14
5740.77 2.1604e-14
5742.5 2.1585e-14
5744.23 2.1538e-14
5745.96 2.1631e-14
5747.69 2.2355e-14
5749.42 2.1409e-14
5751.15 2.0878e-14
5752.89 2.1048e-14
5754.62 2.1595e-14
5756.35 2.1254e-14
5758.08 2.1104e-14
5759.81 2.1297e-14
5761.54 2.1823e-14
5763.27 2.2008e-14
5765.0 2.1753e-14
5766.73 2.1644e-14
5768.46 2.1429e-14
5770.19 2.1337e-14
5771.92 2.1466e-14
5773.65 2.1467e-14
5775.38 2.0977e-14
5777.11 2.0651e-14
5778.84 2.0593e-14
5780.58 2.0666e-14
5782.31 2.0459e-14
5784.04 2.0407e-14
5785.77 2.0765e-14
5787.5 2.0677e-14
5789.23 2.0719e-14
5790.96 2.1387e-14
5792.69 2.1861e-14
5794.42 2.1725e-14
5796.15 2.1916e-14
5797.88 2.1625e-14
5799.61 2.1946e-14
5801.34 2.2164e-14
5803.07 2.1832e-14
5804.8 2.2039e-14
5806.53 2.2232e-14
5808.26 2.1763e-14
5810.0 2.1894e-14
5811.73 2.1873e-14
5813.46 2.1578e-14
5815.19 2.1459e-14
5816.92 2.1356e-14
5818.65 2.1637e-14
5820.38 2.1942e-14
5822.11 2.1822e-14
5823.84 2.1908e-14
5825.57 2.2432e-14
5827.3 2.2145e-14
5829.03 2.2157e-14
5830.76 2.1903e-14
5832.49 2.1538e-14
5834.22 2.1757e-14
5835.95 2.1837e-14
5837.69 2.1999e-14
5839.42 2.2091e-14
5841.15 2.187e-14
5842.88 2.2075e-14
5844.61 2.1674e-14
5846.34 2.1327e-14
5848.07 2.1057e-14
5849.8 2.1005e-14
5851.53 2.1145e-14
5853.26 2.105e-14
5854.99 2.0739e-14
5856.72 2.0783e-14
5858.45 2.048e-14
5860.18 2.0389e-14
5861.91 2.0703e-14
5863.64 2.0867e-14
5865.37 2.0826e-14
5867.11 2.0294e-14
5868.84 2.101e-14
5870.57 2.0798e-14
5872.3 2.1226e-14
5874.03 2.0813e-14
5875.76 2.0387e-14
5877.49 2.0471e-14
5879.22 1.9981e-14
5880.95 1.9351e-14
5882.68 1.9364e-14
5884.41 1.8156e-14
5886.14 1.732e-14
5887.87 1.744e-14
5889.6 1.6406e-14
5891.33 1.5929e-14
5893.06 1.5661e-14
5894.8 1.5924e-14
5896.53 1.6542e-14
5898.26 1.6477e-14
5899.99 1.7315e-14
5901.72 1.8466e-14
5903.45 1.9088e-14
5905.18 1.9122e-14
5906.91 2.0038e-14
5908.64 2.0157e-14
5910.37 2.0202e-14
5912.1 2.0343e-14
5913.83 2.0122e-14
5915.56 2.0049e-14
5917.29 1.9689e-14
5919.02 2.0242e-14
5920.75 2.0446e-14
5922.49 2.0262e-14
5924.22 2.0896e-14
5925.95 2.0825e-14
5927.68 2.0957e-14
5929.41 2.0685e-14
5931.14 2.0958e-14
5932.87 2.0778e-14
5934.6 2.0889e-14
5936.33 2.0897e-14
5938.06 2.0292e-14
5939.79 2.0675e-14
5941.52 2.1076e-14
5943.25 2.0532e-14
5944.98 2.0779e-14
5946.71 2.0773e-14
5948.44 2.0536e-14
5950.18 2.0446e-14
5951.91 2.0694e-14
5953.64 2.0429e-14
5955.37 2.0515e-14
5957.1 2.0267e-14
5958.83 2.0539e-14
5960.56 2.0838e-14
5962.29 2.1012e-14
5964.02 2.133e-14
5965.75 2.1193e-14
5967.48 2.1242e-14
5969.21 2.1365e-14
5970.94 2.1402e-14
5972.67 2.0689e-14
5974.4 2.034e-14
5976.13 2.0492e-14
5977.87 2.0558e-14
5979.6 2.0299e-14
5981.33 2.0647e-14
5983.06 2.055e-14
5984.79 2.0414e-14
5986.52 2.0714e-14
5988.25 2.085e-14
5989.98 2.0405e-14
5991.71 2.044e-14
5993.44 2.0312e-14
5995.17 2.0407e-14
5996.9 2.0323e-14
5998.63 2.0321e-14
6000.36 2.0336e-14
6002.09 1.9981e-14
6003.82 2.0206e-14
6005.56 2.058e-14
6007.29 2.0396e-14
6009.02 2.0586e-14
6010.75 2.0003e-14
6012.48 1.9572e-14
6014.21 2.013e-14
6015.94 2.0167e-14
6017.67 2.0095e-14
6019.4 2.0156e-14
6021.13 1.9983e-14
6022.86 2.0146e-14
6024.59 2.0494e-14
6026.32 2.1053e-14
6028.05 2.0933e-14
6029.78 2.0687e-14
6031.51 2.0932e-14
6033.24 2.1105e-14
6034.98 2.1178e-14
6036.71 2.1244e-14
6038.44 2.1182e-14
6040.17 2.1292e-14
6041.9 2.1121e-14
6043.63 2.1135e-14
6045.36 2.1351e-14
6047.09 2.151e-14
6048.82 2.1308e-14
6050.55 2.1135e-14
6052.28 2.1313e-14
6054.01 2.1143e-14
6055.74 2.1091e-14
6057.47 2.0999e-14
6059.2 2.0512e-14
6060.93 2.0456e-14
6062.67 2.0954e-14
6064.4 2.0894e-14
6066.13 2.0726e-14
6067.86 2.0992e-14
6069.59 2.105e-14
6071.32 2.0877e-14
6073.05 2.0594e-14
6074.78 2.0807e-14
6076.51 2.0978e-14
6078.24 2.085e-14
6079.97 2.0665e-14
6081.7 2.0795e-14
6083.43 2.0761e-14
6085.16 2.0295e-14
6086.89 2.0287e-14
6088.62 2.0451e-14
6090.36 2.0519e-14
6092.09 2.0429e-14
6093.82 2.0034e-14
6095.55 2.0032e-14
6097.28 2.0249e-14
6099.01 2.048e-14
6100.74 2.081e-14
6102.47 2.0706e-14
6104.2 2.029e-14
6105.93 2.0404e-14
6107.66 2.0546e-14
6109.39 2.0224e-14
6111.12 2.0126e-14
6112.85 2.0131e-14
6114.58 2.0079e-14
6116.31 1.9588e-14
6118.05 1.9419e-14
6119.78 1.9492e-14
6121.51 1.9404e-14
6123.24 1.9077e-14
6124.97 1.9649e-14
6126.7 1.9739e-14
6128.43 1.9665e-14
6130.16 1.9358e-14
6131.89 1.9532e-14
6133.62 1.935e-14
6135.35 1.8545e-14
6137.08 1.8814e-14
6138.81 1.9155e-14
6140.54 1.9783e-14
6142.27 1.9869e-14
6144.0 1.9795e-14
6145.73 1.9574e-14
6147.47 1.9969e-14
6149.2 2.0158e-14
6150.93 1.9553e-14
6152.66 1.9629e-14
6154.39 1.925e-14
6156.12 1.9096e-14
6157.85 1.8769e-14
6159.58 1.8391e-14
6161.31 1.8484e-14
6163.04 1.8674e-14
6164.77 1.8405e-14
6166.5 1.8114e-14
6168.23 1.8376e-14
6169.96 1.8597e-14
6171.69 1.8866e-14
6173.42 1.8593e-14
6175.16 1.8924e-14
6176.89 1.8914e-14
6178.62 1.867e-14
6180.35 1.8967e-14
6182.08 1.9245e-14
6183.81 1.8747e-14
6185.54 1.9114e-14
6187.27 1.8939e-14
6189.0 1.8655e-14
6190.73 1.9033e-14
6192.46 1.8671e-14
6194.19 1.8177e-14
6195.92 1.8802e-14
6197.65 1.9109e-14
6199.38 1.8701e-14
6201.11 1.8969e-14
6202.85 1.9364e-14
6204.58 1.9363e-14
6206.31 1.9375e-14
6208.04 1.926e-14
6209.77 1.9133e-14
6211.5 1.8984e-14
6213.23 1.8397e-14
6214.96 1.8539e-14
6216.69 1.829e-14
6218.42 1.7965e-14
6220.15 1.8118e-14
6221.88 1.7923e-14
6223.61 1.8455e-14
6225.34 1.8468e-14
6227.07 1.8212e-14
6228.8 1.8311e-14
6230.54 1.8215e-14
6232.27 1.8195e-14
6234.0 1.7903e-14
6235.73 1.7974e-14
6237.46 1.8328e-14
6239.19 1.8009e-14
6240.92 1.816e-14
6242.65 1.8054e-14
6244.38 1.7987e-14
6246.11 1.7698e-14
6247.84 1.7813e-14
6249.57 1.7626e-14
6251.3 1.8134e-14
6253.03 1.7805e-14
6254.76 1.7777e-14
6256.49 1.7552e-14
6258.22 1.7755e-14
6259.96 1.8074e-14
6261.69 1.7755e-14
6263.42 1.8132e-14
6265.15 1.8557e-14
6266.88 1.8596e-14
6268.61 1.8633e-14
6270.34 1.869e-14
6272.07 1.8588e-14
6273.8 1.8671e-14
6275.53 1.8994e-14
6277.26 1.8701e-14
6278.99 1.8857e-14
6280.72 1.8741e-14
6282.45 1.889e-14
6284.18 1.8762e-14
6285.91 1.8683e-14
6287.65 1.9034e-14
6289.38 1.9079e-14
6291.11 1.8769e-14
6292.84 1.9157e-14
6294.57 1.8601e-14
6296.3 1.8334e-14
6298.03 1.8376e-14
6299.76 1.8665e-14
6301.49 1.859e-14
6303.22 1.8342e-14
6304.95 1.8478e-14
6306.68 1.8746e-14
6308.41 1.8625e-14
6310.14 1.8385e-14
6311.87 1.8479e-14
6313.6 1.8369e-14
6315.34 1.8422e-14
6317.07 1.8592e-14
6318.8 1.8284e-14
6320.53 1.8527e-14
6322.26 1.8731e-14
6323.99 1.8932e-14
6325.72 1.9124e-14
6327.45 1.8539e-14
6329.18 1.8505e-14
6330.91 1.8822e-14
6332.64 1.9056e-14
6334.37 1.9223e-14
6336.1 1.8909e-14
6337.83 1.9072e-14
6339.56 1.8603e-14
6341.29 1.8733e-14
6343.02 1.8678e-14
6344.76 1.8761e-14
6346.49 1.9017e-14
6348.22 1.8855e-14
6349.95 1.8416e-14
6351.68 1.8505e-14
6353.41 1.8876e-14
6355.14 1.8464e-14
6356.87 1.843e-14
6358.6 1.8552e-14
6360.33 1.8523e-14
6362.06 1.8412e-14
6363.79 1.8362e-14
6365.52 1.8506e-14
6367.25 1.8866e-14
6368.98 1.9215e-14
6370.71 1.9258e-14
6372.45 1.9096e-14
6374.18 1.9499e-14
6375.91 1.957e-14
6377.64 1.9211e-14
6379.37 1.9126e-14
6381.1 1.8974e-14
6382.83 1.9185e-14
6384.56 1.923e-14
6386.29 1.9141e-14
6388.02 1.9147e-14
6389.75 1.8969e-14
6391.48 1.9419e-14
6393.21 1.9326e-14
6394.94 1.9222e-14
6396.67 1.9266e-14
6398.4 1.9098e-14
6400.14 1.9236e-14
6401.87 1.9314e-14
6403.6 1.9089e-14
6405.33 1.8985e-14
6407.06 1.8928e-14
6408.79 1.9265e-14
6410.52 1.9329e-14
6412.25 1.9229e-14
6413.98 1.884e-14
6415.71 1.8949e-14
6417.44 1.9494e-14
6419.17 1.9333e-14
6420.9 1.9092e-14
6422.63 1.9344e-14
6424.36 1.9367e-14
6426.09 1.9039e-14
6427.83 1.9158e-14
6429.56 1.9067e-14
6431.29 1.9114e-14
6433.02 1.9083e-14
6434.75 1.9028e-14
6436.48 1.9313e-14
6438.21 1.9474e-14
6439.94 1.9634e-14
6441.67 1.9673e-14
6443.4 1.9549e-14
6445.13 1.9386e-14
6446.86 1.9234e-14
6448.59 1.9109e-14
6450.32 1.9046e-14
6452.05 1.8991e-14
6453.78 1.9111e-14
6455.51 1.9319e-14
6457.25 1.9467e-14
6458.98 1.9396e-14
6460.71 1.9419e-14
6462.44 1.9527e-14
6464.17 1.9333e-14
6465.9 1.9436e-14
6467.63 1.9671e-14
6469.36 1.9479e-14
6471.09 1.9403e-14
6472.82 1.9933e-14
6474.55 2.0107e-14
6476.28 1.9811e-14
6478.01 1.9649e-14
6479.74 1.9551e-14
6481.47 1.9491e-14
6483.2 1.9337e-14
6484.94 1.925e-14
6486.67 1.9124e-14
6488.4 1.9344e-14
6490.13 1.9298e-14
6491.86 1.8831e-14
6493.59 1.8409e-14
6495.32 1.8038e-14
6497.05 1.8078e-14
6498.78 1.8467e-14
6500.51 1.8691e-14
6502.24 1.8743e-14
6503.97 1.8856e-14
6505.7 1.9109e-14
6507.43 1.9113e-14
6509.16 1.91e-14
6510.89 1.9374e-14
6512.62 1.9385e-14
6514.36 1.9163e-14
6516.09 1.9411e-14
6517.82 1.9531e-14
6519.55 1.9706e-14
6521.28 1.9706e-14
6523.01 1.9616e-14
6524.74 1.9565e-14
6526.47 1.9542e-14
6528.2 1.9648e-14
6529.93 1.9304e-14
6531.66 1.9365e-14
6533.39 1.9636e-14
6535.12 1.94e-14
6536.85 1.9462e-14
6538.58 1.9652e-14
6540.31 1.9661e-14
6542.05 1.9532e-14
6543.78 1.9425e-14
6545.51 1.931e-14
6547.24 1.9596e-14
6548.97 1.9445e-14
6550.7 1.8891e-14
6552.43 1.8719e-14
6554.16 1.8794e-14
6555.89 1.8413e-14
6557.62 1.8078e-14
6559.35 1.7778e-14
6561.08 1.7584e-14
6562.81 1.7678e-14
6564.54 1.7868e-14
6566.27 1.7754e-14
6568.0 1.7729e-14
6569.74 1.8138e-14
6571.47 1.8123e-14
6573.2 1.8819e-14
6574.93 1.9027e-14
6576.66 1.8908e-14
6578.39 1.8825e-14
6580.12 1.9046e-14
6581.85 1.9187e-14
6583.58 1.8851e-14
6585.31 1.8752e-14
6587.04 1.885e-14
6588.77 1.8888e-14
6590.5 1.8752e-14
6592.23 1.8947e-14
6593.96 1.8641e-14
6595.69 1.868e-14
6597.43 1.8742e-14
6599.16 1.8796e-14
6600.89 1.9141e-14
6602.62 1.8839e-14
6604.35 1.8796e-14
6606.08 1.8921e-14
6607.81 1.8995e-14
6609.54 1.9035e-14
6611.27 1.9035e-14
6613.0 1.9118e-14
6614.73 1.9258e-14
6616.46 1.9329e-14
6618.19 1.9705e-14
6619.92 1.9547e-14
6621.65 1.9156e-14
6623.38 1.9048e-14
6625.12 1.8993e-14
6626.85 1.8939e-14
6628.58 1.9131e-14
6630.31 1.8972e-14
6632.04 1.8884e-14
6633.77 1.9172e-14
6635.5 1.8993e-14
6637.23 1.8963e-14
6638.96 1.8893e-14
6640.69 1.8612e-14
6642.42 1.8501e-14
6644.15 1.8496e-14
6645.88 1.8327e-14
6647.61 1.8287e-14
6649.34 1.8209e-14
6651.07 1.8281e-14
6652.81 1.7925e-14
6654.54 1.7539e-14
6656.27 1.7559e-14
6658.0 1.7566e-14
6659.73 1.7387e-14
6661.46 1.7114e-14
6663.19 1.6921e-14
6664.92 1.6902e-14
6666.65 1.6886e-14
6668.38 1.7262e-14
6670.11 1.7386e-14
6671.84 1.76e-14
6673.57 1.7442e-14
6675.3 1.7692e-14
6677.03 1.7897e-14
6678.76 1.7497e-14
6680.5 1.7801e-14
6682.23 1.7961e-14
6683.96 1.8379e-14
6685.69 1.8264e-14
6687.42 1.7732e-14
6689.15 1.6741e-14
6690.88 1.4802e-14
6692.61 1.3675e-14
6694.34 1.2596e-14
6696.07 1.2185e-14
6697.8 1.248e-14
6699.53 1.3076e-14
6701.26 1.3533e-14
6702.99 1.3982e-14
6710.0 1.8278e-14
6725.46 1.7747e-14
6740.97 1.8464e-14
6756.51 1.7886e-14
6772.08 1.8269e-14
6787.69 1.8789e-14
6803.34 1.8244e-14
6819.03 1.8506e-14
6834.74 1.843e-14
6850.5 1.8102e-14
6866.29 1.7616e-14
6882.12 1.816e-14
6897.98 1.8379e-14
6913.89 1.8388e-14
6929.83 1.8227e-14
6945.8 1.8877e-14
6961.81 1.8456e-14
6977.86 1.9069e-14
6993.95 1.9211e-14
7010.07 1.861e-14
7026.23 1.9229e-14
7042.43 1.9194e-14
7058.66 1.9114e-14
7074.93 1.7361e-14
7091.24 1.7489e-14
7107.59 1.7823e-14
7123.97 1.7832e-14
7140.4 1.7195e-14
7156.86 1.6928e-14
7173.36 1.7093e-14
7189.89 1.6944e-14
7206.46 1.7031e-14
7223.08 1.7719e-14
7239.73 1.7974e-14
7256.42 1.8275e-14
7273.14 1.8368e-14
7289.91 1.7753e-14
7306.72 1.8429e-14
7323.56 1.8523e-14
7340.44 1.8833e-14
7357.37 1.9148e-14
7374.32 1.9291e-14
7391.33 1.9344e-14
7408.36 1.9265e-14
7425.44 1.9186e-14
7442.56 2.01e-14
7459.72 2.0296e-14
7476.91 1.9936e-14
7494.15 2.041e-14
7511.43 2.0233e-14
7528.74 2.0197e-14
7546.09 2.0535e-14
7563.49 2.0078e-14
7580.93 1.9858e-14
7598.4 1.946e-14
7615.92 1.9336e-14
7633.48 1.948e-14
7651.07 1.9002e-14
7668.71 1.8708e-14
7686.39 1.9065e-14
7704.11 1.8857e-14
7721.87 1.8142e-14
7739.67 1.8446e-14
7757.51 1.7383e-14
7775.39 1.8593e-14
7793.32 1.8432e-14
7811.28 1.8741e-14
7829.29 1.8924e-14
7847.34 1.8847e-14
7865.43 1.9075e-14
7883.56 1.8651e-14
7901.73 1.8235e-14
7919.95 1.7995e-14
7938.2 1.8129e-14
7956.5 1.8096e-14
7974.85 1.8656e-14
7993.23 1.8623e-14
8011.66 1.859e-14
8030.12 1.9121e-14
8048.64 1.9486e-14
8067.19 1.9632e-14
8085.79 1.9063e-14
8104.43 1.8468e-14
8123.11 1.8865e-14
8141.83 1.8701e-14
8160.61 1.8798e-14
8179.42 1.8851e-14
8198.27 1.8861e-14
8217.17 1.9046e-14
8236.11 1.7141e-14
8255.1 1.9827e-14
8274.13 1.9792e-14
8293.2 1.9043e-14
8312.32 1.828e-14
8331.48 1.8289e-14
8350.69 1.8986e-14
8369.94 1.8909e-14
8389.23 1.8789e-14
8408.58 1.8756e-14
8427.96 1.868e-14
8447.38 1.7685e-14
8466.86 1.7982e-14
8486.38 1.8327e-14
8505.94 1.3469e-14
8525.55 1.7162e-14
8545.2 1.6474e-14
8564.9 1.7744e-14
8584.64 1.8042e-14
8604.44 1.7969e-14
8624.27 1.8145e-14
8644.15 1.8408e-14
8664.07 1.7549e-14
8684.05 1.6923e-14
8704.07 1.8102e-14
8724.13 1.8577e-14
8744.25 1.7874e-14
8764.4 1.8512e-14
8784.6 1.8565e-14
8804.86 1.8533e-14
8825.15 1.8975e-14
8845.5 1.8384e-14
8865.89 1.8866e-14
8886.33 1.7058e-14
8906.81 1.7627e-14
8927.34 1.7556e-14
8947.93 1.7851e-14
8968.55 1.782e-14
8989.22 1.7265e-14
9009.95 1.6196e-14
9030.72 1.6969e-14
9051.53 1.8789e-14
9072.4 1.7667e-14
9093.32 1.8089e-14
9114.28 1.7892e-14
9135.29 1.866e-14
9156.35 1.7505e-14
9177.46 1.7156e-14
9198.61 1.7851e-14
9219.82 1.6708e-14
9241.07 1.6641e-14
9262.37 1.7637e-14
9283.73 1.8226e-14
9305.13 1.603e-14
9326.58 1.8416e-14
9348.08 1.8342e-14
9369.63 1.8018e-14
9391.22 1.8364e-14
9412.87 1.8081e-14
9434.58 1.8555e-14
9456.32 1.8312e-14
9478.12 1.8749e-14
9499.97 1.8804e-14
9521.87 1.8557e-14
9543.82 1.8271e-14
9565.82 1.8494e-14
9587.87 1.8806e-14
9609.97 1.8559e-14
9632.13 1.8699e-14
9654.33 1.8326e-14
9676.59 1.8379e-14
9698.89 1.8646e-14
9721.26 1.8066e-14
9743.66 1.8077e-14
9766.12 1.8171e-14
9788.63 1.7892e-14
9811.2 1.8404e-14
9833.82 1.8246e-14
9856.49 1.8342e-14
9879.21 1.8227e-14
9901.98 1.7946e-14
9924.81 1.8165e-14
9947.69 1.8218e-14
9970.63 1.8272e-14
9993.61 1.8199e-14
10016.65 1.8294e-14
10086.07 1.8119e-14
10132.64 1.8309e-14
10179.4 1.8164e-14
10226.39 1.8229e-14
10273.59 1.8294e-14
10297.28 1.8221e-14
10488.72 1.7744e-14
10708.34 1.7024e-14
10907.42 1.6484e-14
11110.21 1.5706e-14
11290.74 1.5384e-14
11500.65 1.5278e-14
11687.52 1.4827e-14
11904.8 1.4291e-14
12098.24 1.3998e-14
12294.82 1.3774e-14
12494.59 1.3368e-14
12697.61 1.3064e-14
12903.94 1.2737e-14
13113.62 1.2504e-14
13296.05 1.2108e-14
13512.09 1.1859e-14
13700.05 1.1643e-14
13890.63 1.117e-14
14083.87 1.0667e-14
14312.72 1.0521e-14
14511.83 1.0594e-14
14713.71 1.0211e-14
14884.09 1.0329e-14
15091.15 1.0401e-14
15301.09 1.057e-14
15513.95 1.0449e-14
15693.58 1.0305e-14
15911.9 9.9784e-15
16096.16 1.0001e-14
16282.55 9.9097e-15
16509.06 9.7963e-15
16700.23 9.6619e-15
16893.6 9.5293e-15
17089.22 9.2696e-15
17287.11 8.9138e-15
17487.29 8.5914e-15
17689.77 8.2236e-15
17894.61 7.8897e-15
18101.82 7.5173e-15
18311.44 7.2956e-15
18480.86 7.0317e-15
18694.86 6.7307e-15
18911.34 6.5172e-15
19086.31 6.3983e-15
19307.33 6.181e-15
19485.99 5.9301e-15
19711.63 5.7156e-15
19894.01 5.5216e-15
20078.09 5.4333e-15
20310.57 5.2368e-15
20498.51 5.153e-15
20688.19 5.0126e-15
20879.6 4.8985e-15
21121.38 4.8091e-15
21316.82 4.6996e-15
21514.05 4.5926e-15
21713.12 4.4469e-15
21914.04 4.3557e-15
22116.8 4.2176e-15
22321.45 4.1026e-15
22476.16 4e-15
22684.14 3.8821e-15
22894.02 3.4679e-15
23105.87 3.4282e-15
23319.67 2.9858e-15
23481.31 2.8058e-15
23698.59 2.8449e-15
23917.85 2.6065e-15
24083.66 2.518e-15
24306.48 2.4778e-15
24474.98 2.2965e-15
24701.43 2.2546e-15
24872.67 1.8796e-15
25102.79 1.8453e-15
25276.81 1.8581e-15
25510.71 1.841e-15
25687.53 1.8709e-15
25925.22 1.8368e-15
26104.91 1.8368e-15
26285.88 1.7867e-15
26529.08 1.7622e-15
26712.99 1.7301e-15
26898.14 1.7024e-15
27084.58 1.6713e-15
27272.33 1.637e-15
27524.69 1.6109e-15
27715.47 1.5706e-15
27907.57 1.549e-15
28101.04 1.5173e-15
28295.81 1.4896e-15
28491.96 1.459e-15
28689.45 1.4291e-15
28888.33 1.403e-15
29088.56 1.3742e-15
29290.21 1.3461e-15
29493.22 1.3184e-15
29697.68 1.2974e-15
29903.52 1.2678e-15
30110.78 1.2476e-15
30319.52 1.2248e-15
30529.67 1.2108e-15
30670.61 1.1942e-15
30883.19 1.1751e-15
31097.29 1.1589e-15
31312.83 1.143e-15
31529.89 1.1248e-15
31675.42 1.1068e-15
31894.97 1.0916e-15
32116.07 1.0741e-15
32264.3 1.0594e-15
32487.93 1.0449e-15
32713.14 1.0329e-15
32864.13 1.0282e-15
33091.96 1.0117e-15
33321.32 9.8189e-16
33475.11 9.6397e-16
33707.17 9.442e-16
33862.74 9.2483e-16
34097.49 9.0795e-16
34333.83 8.9343e-16
34492.29 8.7713e-16
34731.4 8.5914e-16
34891.71 8.4346e-16
35133.58 8.2997e-16
35295.74 8.1295e-16
35540.38 7.9811e-16
35704.46 7.8354e-16
35869.25 7.6924e-16
36117.86 7.552e-16
36284.6 7.4142e-16
36536.1 7.2621e-16
36704.77 7.1131e-16
36874.18 6.9673e-16
37129.76 6.8244e-16
37301.17 6.7152e-16
37473.33 6.5624e-16
37733.07 6.4723e-16
37907.26 6.3396e-16
38082.22 6.2239e-16
38257.99 6.1244e-16
38523.2 6.0126e-16
38701.01 5.8893e-16
38879.63 5.7818e-16
39059.12 5.6763e-16
39329.85 5.5727e-16
39511.37 5.4584e-16
39693.78 5.3587e-16
39876.98 5.2368e-16
40061.03 5.153e-16
40338.74 5.0706e-16
40524.93 4.9666e-16
40711.97 4.876e-16
40899.92 4.798e-16
41088.69 4.7213e-16
41278.33 4.6458e-16
41468.9 4.561e-16
41660.29 4.4778e-16
41852.58 4.396e-16
42142.71 4.3158e-16
42337.22 4.2664e-16
42532.62 4.1885e-16
42728.98 4.1216e-16
42926.19 3.9451e-16
43124.31 3.7676e-16
43323.35 3.7589e-16
43523.35 3.598e-16
43724.24 3.5242e-16
43926.04 2.9844e-16
44128.83 2.9454e-16
44332.51 2.9061e-16
44537.12 2.8667e-16
44742.73 2.8274e-16
44949.24 2.7906e-16
45052.85 2.7721e-16
45260.79 2.7351e-16
45469.74 2.6978e-16
45679.6 2.6612e-16
45890.43 2.6264e-16
46102.29 2.5914e-16
46315.07 2.5562e-16
46528.84 2.5209e-16
46743.64 2.4881e-16
46851.39 2.4716e-16
47067.63 2.4385e-16
47284.87 2.4053e-16
47503.16 2.3724e-16
47722.41 2.3413e-16
47942.67 2.3101e-16
48053.18 2.2945e-16
48275.02 2.263e-16
48497.83 2.2324e-16
48721.67 2.203e-16
48946.6 2.1735e-16
49059.42 2.1587e-16
49285.85 2.129e-16
49513.33 2.1005e-16
49741.91 2.0728e-16
49856.57 2.0588e-16
50086.68 2.0309e-16
50317.86 2.0028e-16
50550.15 1.9763e-16
50666.67 1.9632e-16
50783.46 1.9501e-16
50900.52 1.9369e-16
51017.85 1.9237e-16
51135.45 1.9105e-16
51253.38 1.8972e-16
51371.52 1.8839e-16
51489.93 1.8716e-16
51608.62 1.8592e-16
51727.58 1.8469e-16
51846.82 1.8344e-16
51966.39 1.822e-16
52086.17 1.8095e-16
52206.23 1.797e-16
52326.58 1.7845e-16
52447.19 1.7723e-16
52568.09 1.7607e-16
52689.26 1.749e-16
52810.77 1.7373e-16
52932.5 1.7256e-16
53054.52 1.7138e-16
53176.81 1.702e-16
53299.39 1.6902e-16
53422.24 1.6784e-16
53545.39 1.6672e-16
53668.87 1.6562e-16
53792.58 1.6451e-16
53916.58 1.6341e-16
54040.86 1.623e-16
54165.43 1.6119e-16
54290.28 1.6008e-16
54415.48 1.5896e-16
54540.91 1.5786e-16
54666.64 1.5682e-16
54792.65 1.5578e-16
54918.95 1.5473e-16
55045.54 1.5369e-16
55172.43 1.5264e-16
55299.66 1.5159e-16
55427.13 1.5054e-16
55554.9 1.4948e-16
55682.95 1.4847e-16
55811.31 1.4749e-16
55939.95 1.4651e-16
56068.96 1.4552e-16
56198.21 1.4454e-16
56327.75 1.4355e-16
56457.58 1.4255e-16
56587.72 1.4156e-16
56718.16 1.4056e-16
56848.9 1.3964e-16
56980.01 1.3871e-16
57111.35 1.3778e-16
57242.99 1.3685e-16
57374.94 1.3592e-16
57507.19 1.3498e-16
57639.75 1.3405e-16
57772.62 1.3311e-16
57905.85 1.3219e-16
58039.33 1.3132e-16
58173.11 1.3044e-16
58307.21 1.2956e-16
58441.61 1.2868e-16
58576.32 1.278e-16
58711.41 1.2692e-16
58846.74 1.2603e-16
58982.39 1.2515e-16
59118.35 1.2431e-16
59254.62 1.2348e-16
59391.2 1.2266e-16
59528.11 1.2183e-16
59665.39 1.2099e-16
59802.92 1.2016e-16
59940.77 1.1933e-16
60078.94 1.1849e-16
60217.42 1.1766e-16
60356.23 1.1689e-16
60495.42 1.1611e-16
60634.87 1.1532e-16
60774.64 1.1454e-16
60914.72 1.1376e-16
61055.14 1.1297e-16
61195.88 1.1218e-16
61336.93 1.1139e-16
61478.39 1.1063e-16
61620.1 1.099e-16
61762.14 1.0916e-16
61904.51 1.0842e-16
62047.2 1.0768e-16
62190.22 1.0694e-16
62333.65 1.062e-16
62477.33 1.0545e-16
62621.34 1.0471e-16
62765.69 1.0401e-16
62910.37 1.0332e-16
63055.38 1.0262e-16
63200.73 1.0193e-16
63346.48 1.0123e-16
63492.5 1.0053e-16
63638.85 9.9825e-17
63785.54 9.9122e-17
63932.58 9.8437e-17
64079.94 9.7783e-17
64227.65 9.7127e-17
64375.77 9.647e-17
64524.16 9.5812e-17
64672.9 9.5152e-17
64821.98 9.449e-17
64971.39 9.3827e-17
65121.15 9.3163e-17
65271.33 9.2535e-17
65421.79 9.1918e-17
65572.6 9.1299e-17
65723.74 9.0678e-17
65875.24 9.0056e-17
66027.08 8.9433e-17
66179.28 8.8808e-17
66331.9 8.8182e-17
66484.81 8.7563e-17
66638.06 8.6981e-17
66791.67 8.6398e-17
66945.62 8.5813e-17
67099.94 8.5227e-17
67254.68 8.464e-17
67409.71 8.4051e-17
67565.09 8.3461e-17
67720.83 8.287e-17
67876.93 8.2303e-17
68033.4 8.1754e-17
68190.22 8.1203e-17
68347.48 8.0651e-17
68505.02 8.0097e-17
68662.93 7.9543e-17
68821.2 7.8987e-17
68979.84 7.843e-17
69138.85 7.7871e-17
69298.29 7.7353e-17
69458.03 7.6834e-17
69618.13 7.6314e-17
69778.61 7.5793e-17
69939.45 7.527e-17
70100.67 7.4746e-17
70262.26 7.4222e-17
70424.29 7.3695e-17
70586.62 7.3183e-17
70749.34 7.2694e-17
70912.41 7.2205e-17
71075.87 7.1714e-17
71239.71 7.1221e-17
71403.92 7.0728e-17
71568.59 7.0234e-17
71733.56 6.9738e-17
71898.91 6.9241e-17
72064.65 6.8773e-17
72230.76 6.8311e-17
72397.26 6.7849e-17
72564.22 6.7385e-17
72731.48 6.692e-17
72899.13 6.6455e-17
73067.17 6.5988e-17
73235.59 6.552e-17
73404.41 6.5058e-17
73573.61 6.4623e-17
73743.28 6.4187e-17
73913.27 6.3751e-17
74083.64 6.3313e-17
74254.41 6.2874e-17
74425.57 6.2435e-17
74597.13 6.1994e-17
74769.16 6.1552e-17
74941.51 6.1129e-17
75114.25 6.0719e-17
75287.4 6.0307e-17
75460.95 5.9895e-17
75634.88 5.9482e-17
75809.23 5.9068e-17
75984.06 5.8653e-17
76159.21 5.8237e-17
76334.76 5.782e-17
76510.72 5.7433e-17
76687.08 5.7046e-17
76863.85 5.6657e-17
77041.03 5.6268e-17
77218.69 5.5878e-17
77396.69 5.5487e-17
77575.09 5.5096e-17
77753.91 5.4703e-17
77933.14 5.4321e-17
78112.78 5.3956e-17
78292.92 5.359e-17
78473.39 5.3224e-17
78654.28 5.2857e-17
78835.58 5.2489e-17
79017.31 5.212e-17
79199.44 5.175e-17
79382.0 5.1379e-17
79565.08 5.103e-17
79748.48 5.0685e-17
79932.3 5.034e-17
80116.55 4.9995e-17
80301.22 4.9648e-17
80486.32 4.9301e-17
80671.94 4.8952e-17
80857.89 4.8603e-17
81044.28 4.8258e-17
81231.09 4.7934e-17
81418.34 4.7609e-17
81606.01 4.7284e-17
81794.12 4.6958e-17
81982.75 4.663e-17
82171.73 4.6302e-17
82361.13 4.5974e-17
82550.98 4.5644e-17
82741.27 4.5329e-17
82932.0 4.5023e-17
83123.25 4.4716e-17
83314.86 4.4409e-17
83506.91 4.4101e-17
83699.39 4.3793e-17
83892.33 4.3483e-17
84085.7 4.3173e-17
84279.52 4.2862e-17
84473.89 4.2574e-17
84668.61 4.2285e-17
84863.77 4.1996e-17
85059.39 4.1706e-17
85255.46 4.1415e-17
85451.98 4.1124e-17
85648.95 4.0832e-17
85846.47 4.0539e-17
86044.35 4.0255e-17
86242.7 3.9983e-17
86441.49 3.9711e-17
86640.74 3.9438e-17
86840.46 3.9164e-17
87040.73 3.889e-17
87241.36 3.8615e-17
87442.45 3.834e-17
87644.02 3.8063e-17
87846.05 3.7803e-17
88048.53 3.7547e-17
88251.49 3.729e-17
88455.02 3.7032e-17
88658.91 3.6774e-17
88863.28 3.6515e-17
89068.12 3.6256e-17
89273.42 3.5996e-17
89479.2 3.5739e-17
89685.56 3.5498e-17
89892.29 3.5256e-17
90099.5 3.5014e-17
90307.18 3.4771e-17
90515.35 3.4527e-17
90723.99 3.4283e-17
90933.11 3.4039e-17
91142.82 3.3793e-17
91352.91 3.3558e-17
91563.49 3.3331e-17
91774.55 3.3103e-17
91986.1 3.2874e-17
92198.13 3.2645e-17
92410.76 3.2415e-17
92623.77 3.2185e-17
92837.27 3.1954e-17
93051.27 3.1723e-17
93265.76 3.1508e-17
93480.75 3.1293e-17
93696.23 3.1078e-17
93912.3 3.0862e-17
94128.78 3.0646e-17
94345.75 3.043e-17
94563.22 3.0212e-17
94781.2 2.9995e-17
94999.68 2.9783e-17
95218.66 2.9581e-17
95438.25 2.9378e-17
95658.24 2.9175e-17
95878.74 2.8972e-17
96099.75 2.8768e-17
96321.26 2.8563e-17
96543.29 2.8359e-17
96765.94 2.8153e-17
96988.99 2.796e-17
97212.56 2.7769e-17
97436.64 2.7578e-17
97661.24 2.7386e-17
97886.35 2.7195e-17
98111.99 2.7002e-17
98338.25 2.6809e-17
98564.92 2.6616e-17
98792.13 2.6425e-17
99019.85 2.6246e-17
99248.1 2.6066e-17
99476.87 2.5886e-17
99706.28 2.5705e-17
99936.11 2.5524e-17
100166.47 2.5343e-17
100397.36 2.5161e-17
100628.78 2.4979e-17
100860.74 2.4804e-17
101093.23 2.4635e-17
101326.37 2.4466e-17
101559.93 2.4296e-17
101794.03 2.4125e-17
102028.68 2.3955e-17
102263.86 2.3784e-17
102499.59 2.3612e-17
102735.86 2.344e-17
102972.78 2.3281e-17
103210.15 2.3121e-17
103448.05 2.2962e-17
103686.5 2.2801e-17
103925.51 2.2641e-17
104165.06 2.248e-17
104405.29 2.2319e-17
104645.95 2.2157e-17
104887.17 2.1999e-17
105128.94 2.1849e-17
105371.27 2.1699e-17
105614.16 2.1548e-17
105857.61 2.1397e-17
106101.73 2.1246e-17
106346.3 2.1094e-17
106591.44 2.0942e-17
106837.14 2.0789e-17
107083.4 2.0646e-17
107330.24 2.0504e-17
107577.77 2.0362e-17
107825.73 2.022e-17
108074.28 2.0078e-17
108323.4 1.9935e-17
108573.1 1.9792e-17
108823.36 1.9649e-17
109074.21 1.9507e-17
109325.76 1.9374e-17
109577.76 1.924e-17
109830.34 1.9107e-17
110083.51 1.8973e-17
110337.26 1.8838e-17
110591.6 1.8704e-17
110846.64 1.8569e-17
111102.15 1.8434e-17
111358.25 1.8304e-17
111614.93 1.8179e-17
111872.21 1.8053e-17
112130.09 1.7927e-17
112388.56 1.7801e-17
112647.74 1.7674e-17
112907.41 1.7547e-17
113167.66 1.742e-17
113428.52 1.7292e-17
113689.98 1.7174e-17
113952.05 1.7056e-17
114214.72 1.6937e-17
114478.11 1.6819e-17
114741.99 1.67e-17
115006.48 1.658e-17
115271.58 1.6461e-17
115537.29 1.6341e-17
115803.61 1.6224e-17
116070.67 1.6113e-17
116338.23 1.6001e-17
116606.39 1.589e-17
116875.18 1.5778e-17
117144.58 1.5665e-17
117414.61 1.5553e-17
117685.26 1.544e-17
117956.66 1.5327e-17
118228.56 1.5221e-17
118501.08 1.5116e-17
118774.24 1.5011e-17
119048.02 1.4905e-17
119322.44 1.48e-17
119597.61 1.4694e-17
119873.3 1.4588e-17
120149.61 1.4482e-17
120426.56 1.4377e-17
120704.16 1.4278e-17
120982.39 1.4179e-17
121261.26 1.408e-17
121540.91 1.3981e-17
121821.07 1.3881e-17
122101.88 1.3782e-17
122383.33 1.3682e-17
122665.43 1.3582e-17
122948.18 1.3486e-17
123231.72 1.3393e-17
123515.78 1.33e-17
123800.49 1.3206e-17
124085.86 1.3113e-17
124371.89 1.3019e-17
124658.58 1.2925e-17
124945.92 1.2831e-17
125234.07 1.2736e-17
125522.74 1.2649e-17
125812.08 1.2561e-17
126102.08 1.2474e-17
126392.76 1.2386e-17
126684.11 1.2297e-17
126976.12 1.2209e-17
127268.95 1.2121e-17
127562.32 1.2032e-17
127856.36 1.1945e-17
128151.07 1.1863e-17
128446.47 1.1781e-17
128742.54 1.1698e-17
129039.45 1.1615e-17
129336.89 1.1532e-17
129635.03 1.1449e-17
129933.84 1.1365e-17
130233.35 1.1282e-17
130533.55 1.1203e-17
130834.43 1.1125e-17
131136.16 1.1047e-17
131438.45 1.097e-17
131741.41 1.0892e-17
132045.1 1.0813e-17
132349.46 1.0735e-17
132654.53 1.0656e-17
132960.47 1.0578e-17
133266.95 1.0505e-17
133574.13 1.0432e-17
133882.03 1.0359e-17
134190.63 1.0286e-17
134499.97 1.0212e-17
134810.0 1.0138e-17
135120.88 1.0065e-17
135432.34 9.9904e-18
135744.54 9.9195e-18
136057.43 9.8508e-18
136371.05 9.782e-18
136685.39 9.713e-18
137000.46 9.6438e-18
137316.42 9.5745e-18
137632.93 9.505e-18
137950.2 9.4354e-18
138268.18 9.3656e-18
138586.9 9.3009e-18
138906.35 9.2362e-18
139226.69 9.1713e-18
139547.61 9.1063e-18
139869.29 9.0412e-18
140191.7 8.9759e-18
140514.85 8.9104e-18
140838.74 8.8448e-18
141163.38 8.781e-18
141488.93 8.7202e-18
141815.07 8.6592e-18
142141.97 8.5981e-18
142469.61 8.5369e-18
142798.02 8.4755e-18
143127.17 8.414e-18
143457.25 8.3523e-18
143787.93 8.2905e-18
144119.37 8.2323e-18
144451.58 8.175e-18
144784.55 8.1176e-18
145118.29 8.0601e-18
145452.8 8.0024e-18
145788.23 7.9446e-18
146124.29 7.8866e-18
146461.12 7.8285e-18
146798.72 7.7711e-18
147137.1 7.7173e-18
147476.26 7.6634e-18
147816.37 7.6093e-18
148157.1 7.5551e-18
148498.61 7.5007e-18
148840.9 7.4463e-18
149183.99 7.3917e-18
149527.88 7.337e-18
149872.54 7.2846e-18
150218.17 7.2339e-18
150564.44 7.1831e-18
150911.51 7.1322e-18
151259.37 7.0811e-18
151608.03 7.03e-18
151957.49 6.9787e-18
152307.77 6.9273e-18
152659.02 6.8758e-18
153010.9 6.828e-18
153363.61 6.7803e-18
153717.12 6.7324e-18
154071.45 6.6845e-18
154426.6 6.6364e-18
154782.73 6.5882e-18
155139.51 6.5399e-18
155497.12 6.4915e-18
155855.55 6.4444e-18
156214.82 6.3995e-18
156574.89 6.3546e-18
156935.82 6.3095e-18
157297.73 6.2643e-18
157660.32 6.2191e-18
158023.74 6.1737e-18
158387.99 6.1282e-18
158753.09 6.0826e-18
159119.02 6.0397e-18
159485.98 5.9974e-18
159853.6 5.9551e-18
160222.08 5.9127e-18
160591.4 5.8701e-18
160961.58 5.8275e-18
161332.6 5.7848e-18
161704.49 5.742e-18
162077.41 5.6996e-18
162451.0 5.6599e-18
162825.47 5.6202e-18
163200.79 5.5803e-18
163576.98 5.5404e-18
163954.04 5.5003e-18
164332.14 5.4602e-18
164710.94 5.4199e-18
165090.61 5.3796e-18
165471.16 5.341e-18
165852.58 5.3036e-18
166234.88 5.2662e-18
166618.07 5.2287e-18
167002.32 5.191e-18
167387.27 5.1533e-18
167773.1 5.1156e-18
168159.83 5.0777e-18
168547.46 5.0397e-18
168935.98 5.0045e-18
169325.37 4.9694e-18
169715.87 4.9341e-18
170107.07 4.8988e-18
170499.19 4.8634e-18
170892.2 4.8279e-18
171286.12 4.7923e-18
171680.95 4.7566e-18
172076.88 4.7219e-18
172473.52 4.6889e-18
172871.09 4.6558e-18
173269.56 4.6226e-18
173668.96 4.5893e-18
174069.29 4.556e-18
174470.53 4.5226e-18
174872.88 4.4891e-18
175275.98 4.4555e-18
175680.01 4.4239e-18
176084.96 4.3928e-18
176490.85 4.3616e-18
176897.68 4.3304e-18
177305.63 4.2991e-18
177714.33 4.2677e-18
178123.98 4.2363e-18
178534.57 4.2047e-18
178946.1 4.1736e-18
179358.58 4.1444e-18
179772.01 4.1151e-18
180186.6 4.0857e-18
180601.94 4.0563e-18
181018.24 4.0269e-18
181435.5 3.9973e-18
181853.73 3.9677e-18
182272.91 3.9381e-18
182693.05 3.9096e-18
183114.38 3.8821e-18
183536.48 3.8546e-18
183959.53 3.827e-18
184383.58 3.7993e-18
184808.59 3.7716e-18
185234.6 3.7438e-18
185661.77 3.7159e-18
186089.74 3.688e-18
186518.69 3.6621e-18
186948.63 3.6362e-18
187379.56 3.6103e-18
187811.48 3.5843e-18
188244.4 3.5583e-18
188678.53 3.5322e-18
189113.44 3.506e-18
189549.37 3.4798e-18
189986.28 3.4543e-18
190424.21 3.43e-18
190863.16 3.4056e-18
191303.32 3.3812e-18
191744.29 3.3568e-18
192186.28 3.3323e-18
192629.28 3.3077e-18
193073.3 3.2831e-18
193518.34 3.2584e-18
193964.42 3.2352e-18
194411.73 3.2123e-18
194859.86 3.1894e-18
195309.03 3.1664e-18
195759.23 3.1434e-18
196210.47 3.1204e-18
196662.76 3.0972e-18
197116.3 3.0741e-18
197570.65 3.0512e-18
198026.06 3.0297e-18
198482.54 3.0082e-18
198940.05 2.9866e-18
199398.63 2.965e-18
199858.25 2.9434e-18
200319.16 2.9217e-18
200780.9 2.8999e-18
201243.73 2.8781e-18
201707.6 2.8572e-18
202172.56 2.8371e-18
202638.58 2.8168e-18
203105.68 2.7966e-18
203574.08 2.7762e-18
204043.33 2.7558e-18
204513.65 2.7354e-18
204985.08 2.715e-18
205457.57 2.6944e-18
205931.18 2.6755e-18
206406.09 2.6565e-18
206881.87 2.6374e-18
207358.74 2.6183e-18
207836.72 2.5992e-18
208315.8 2.58e-18
208795.98 2.5608e-18
209277.27 2.5416e-18
209759.9 2.5228e-18
210243.42 2.505e-18
210728.04 2.4871e-18
211213.78 2.4692e-18
211700.64 2.4513e-18
212188.63 2.4333e-18
212677.98 2.4153e-18
213168.21 2.3972e-18
213659.58 2.3791e-18
214152.07 2.362e-18
214645.71 2.3452e-18
215140.49 2.3284e-18
215636.4 2.3116e-18
216133.69 2.2947e-18
216631.89 2.2778e-18
217131.26 2.2608e-18
217631.75 2.2438e-18
218133.41 2.227e-18
218636.23 2.2113e-18
219140.43 2.1955e-18
219645.56 2.1797e-18
220151.87 2.1638e-18
220659.33 2.1479e-18
221167.97 2.132e-18
221677.77 2.1161e-18
222188.77 2.1001e-18
222701.16 2.0848e-18
223214.5 2.07e-18
223729.03 2.0551e-18
224244.74 2.0403e-18
224761.64 2.0254e-18
225279.73 2.0104e-18
225799.02 1.9954e-18
226319.76 1.9804e-18
226841.44 1.9654e-18
227364.33 1.9515e-18
227888.41 1.9375e-18
228413.7 1.9236e-18
228940.23 1.9096e-18
229468.2 1.8956e-18
229997.14 1.8815e-18
230527.3 1.8674e-18
231058.68 1.8533e-18
231591.28 1.8396e-18
232125.13 1.8265e-18
232660.19 1.8134e-18
233196.73 1.8003e-18
233734.28 1.7872e-18
234273.04 1.774e-18
234813.07 1.7608e-18
235354.33 1.7475e-18
235896.84 1.7342e-18
236440.85 1.7217e-18
236985.86 1.7095e-18
237532.13 1.6971e-18
238079.66 1.6848e-18
238628.46 1.6724e-18
239178.5 1.66e-18
239729.83 1.6476e-18
240282.69 1.6351e-18
240836.56 1.6228e-18
241391.7 1.6113e-18
241948.13 1.5998e-18
242505.83 1.5882e-18
243064.83 1.5766e-18
243625.12 1.5649e-18
244186.95 1.5533e-18
244749.82 1.5416e-18
245313.98 1.5299e-18
245879.45 1.5187e-18
246446.23 1.5078e-18
247014.3 1.497e-18
247583.95 1.4861e-18
248154.66 1.4752e-18
248726.67 1.4642e-18
249299.99 1.4533e-18
249874.66 1.4423e-18
255695.11 1.3392e-18
261650.86 1.244e-18
267745.65 1.1553e-18
273982.08 1.0727e-18
280364.09 9.958e-19
286894.44 9.2417e-19
293577.23 8.5759e-19
300415.36 7.9622e-19
307413.08 7.3909e-19
314573.48 6.859e-19
321901.02 6.3639e-19
329398.86 5.9032e-19
337071.72 5.4745e-19
