# col1 col2
# An Atlas of Galaxy Spectral Energy Distributions from the Ultraviolet to the Mid-Infrared
# Brown et al. (2014)
# http://dx.doi.org/10.5072/03/529D3551F0117
# 
# Column 1 : Restframe Wavelength (Angstrom)
# Column 2 : Flux per unit wavelength (ergs/s/cm^2/Angstrom)
# Column 3 : Observed wavelength (Angstrom)
# Column 4 : Source (0 = model, 1 = Optical Spectrum, 2 = Akari, 3 = Spitzer IRS)
# 
100.01 8.2944e-26
102.11 1.3413e-25
104.01 1.9693e-25
105.94 2.9314e-25
107.91 4.414e-25
109.92 7.4232e-25
114.04 1.4591e-24
118.05 2.6522e-24
121.08 1.2197e-23
125.04 1.9988e-23
127.08 2.4633e-23
127.96 2.7824e-23
130.94 3.7244e-23
132.15 4.6871e-23
133.99 5.6064e-23
137.11 8.4588e-23
139.98 1.0913e-22
142.91 3.6358e-22
146.91 1.1538e-21
151.03 1.5018e-21
154.9 1.9595e-21
158.88 2.5449e-21
161.83 3.0641e-21
165.98 3.9428e-21
169.85 4.9355e-21
173.01 5.8337e-21
177.04 7.1854e-21
179.91 8.358e-21
182.0 9.2437e-21
185.81 1.1204e-20
191.01 1.4117e-20
194.12 1.6232e-20
198.18 1.9225e-20
201.87 2.2773e-20
205.15 2.5705e-20
209.93 2.9814e-20
215.81 3.8968e-20
219.82 4.5208e-20
222.88 4.9526e-20
227.02 5.7191e-20
230.18 9.3527e-20
233.92 1.704e-19
239.92 2.3809e-19
246.07 2.5467e-19
251.81 3.0427e-19
257.08 2.8289e-19
260.05 3.4296e-19
264.28 3.8612e-19
269.19 4.1986e-19
274.2 4.5445e-19
279.3 4.9074e-19
283.83 5.3001e-19
289.78 5.515e-19
295.85 6.1065e-19
301.35 6.4581e-19
307.66 7.1501e-19
317.73 8.2234e-19
328.14 9.1991e-19
338.12 1.0127e-18
348.39 1.1046e-18
357.33 1.1969e-18
365.65 1.3002e-18
375.03 1.3894e-18
384.65 1.4408e-18
395.43 1.5894e-18
404.64 1.7063e-18
414.06 1.79e-18
421.76 1.853e-18
429.6 1.9225e-18
440.62 2.0439e-18
450.88 2.119e-18
460.33 2.1873e-18
469.96 2.2734e-18
479.81 2.3736e-18
489.85 2.416e-18
500.11 2.5279e-18
505.9 2.5823e-18
511.76 3.0567e-18
520.07 3.1562e-18
529.74 3.2651e-18
539.59 3.2629e-18
549.62 3.6838e-18
559.84 4.064e-18
570.25 4.4216e-18
579.52 4.4091e-18
590.29 4.988e-18
599.88 5.1601e-18
609.63 5.4873e-18
619.53 6.4127e-18
629.6 6.8659e-18
639.83 7.0685e-18
650.23 7.8693e-18
657.76 8.3931e-18
665.37 8.8695e-18
674.63 9.0918e-18
685.59 9.1447e-18
695.13 1.1452e-17
704.8 1.1183e-17
716.25 1.3274e-17
726.21 1.3953e-17
734.62 1.4673e-17
744.84 1.6638e-17
755.21 1.7934e-17
765.71 1.9021e-17
774.58 2.1136e-17
785.35 2.299e-17
794.45 2.4281e-17
805.5 2.5689e-17
814.83 2.6943e-17
824.26 2.9932e-17
835.73 2.4862e-17
845.4 3.215e-17
855.19 3.3482e-17
865.1 3.651e-17
875.11 3.9719e-17
885.25 4.381e-17
895.5 4.6679e-17
905.87 4.706e-17
914.25 7.5763e-17
924.84 5.6228e-16
935.55 1.2689e-15
944.2 2.4899e-15
955.14 3.6276e-15
963.97 4.049e-15
975.13 5.9667e-16
984.16 3.3146e-15
995.55 3.6625e-15
1004.77 5.6422e-15
1014.06 5.5474e-15
1025.8 2.3899e-15
1035.3 3.8018e-15
1044.88 7.7195e-15
1054.54 7.6062e-15
1064.3 5.8984e-15
1074.15 7.2157e-15
1084.09 5.5823e-15
1094.12 7.7326e-15
1104.24 7.4614e-15
1114.46 7.1498e-15
1124.77 6.3938e-15
1135.18 8.4566e-15
1145.68 7.6493e-15
1156.28 8.2799e-15
1164.3 8.5865e-15
1175.07 5.7835e-15
1185.95 8.4244e-15
1194.17 5.6013e-15
1205.22 3.878e-15
1216.37 2.7284e-15
1224.8 5.7758e-15
1236.13 9.0755e-15
1244.7 1.0059e-14
1256.22 9.567e-15
1264.93 8.1363e-15
1273.69 1.0841e-14
1285.48 1.1461e-14
1294.39 8.7871e-15
1306.37 8.7092e-15
1315.42 1.126e-14
1324.54 1.0768e-14
1333.72 9.3903e-15
1346.06 1.1501e-14
1355.39 1.1149e-14
1364.79 9.8574e-15
1374.25 1.0477e-14
1383.77 1.0611e-14
1396.58 9.1979e-15
1406.26 9.6191e-15
1416.01 9.8077e-15
1425.82 1.0186e-14
1435.7 1.0101e-14
1442.33 1.0748e-14
1445.66 1.0959e-14
1455.68 1.062e-14
1465.77 9.7386e-15
1475.93 9.7462e-15
1486.16 9.9806e-15
1496.46 1.0197e-14
1503.37 9.6012e-15
1510.31 8.4562e-15
1517.28 9.1416e-15
1524.28 8.828e-15
1534.85 7.5876e-15
1545.48 8.4983e-15
1556.2 8.0083e-15
1563.38 8.1534e-15
1574.22 8.7401e-15
1585.13 9.2189e-15
1596.12 9.4367e-15
1603.48 9.2805e-15
1614.6 9.3473e-15
1625.79 8.7857e-15
1633.3 9.4296e-15
1644.62 9.5841e-15
1656.02 8.782e-15
1663.66 9.6889e-15
1671.34 8.5496e-15
1675.19 9.7113e-15
1686.8 1.0169e-14
1694.59 9.526e-15
1706.34 9.0962e-15
1714.21 8.5799e-15
1726.1 8.5191e-15
1734.06 9.1409e-15
1746.08 8.9098e-15
1754.14 9.5596e-15
1766.3 8.6952e-15
1774.45 8.9295e-15
1786.75 9.0913e-15
1795.0 9.7532e-15
1803.29 9.6975e-15
1815.79 8.839e-15
1824.17 9.0759e-15
1836.81 8.6615e-15
1845.29 7.9077e-15
1853.81 7.9158e-15
1866.66 8.1684e-15
1875.27 8.9239e-15
1883.93 8.1463e-15
1896.99 7.7901e-15
1905.75 8.2969e-15
1914.54 7.9484e-15
1923.38 7.7916e-15
1936.71 8.0192e-15
1945.65 8.3647e-15
1954.63 7.7939e-15
1968.18 8.5742e-15
1977.26 8.82e-15
1981.82 8.31e-15
1995.56 8.0348e-15
2004.77 8.2834e-15
2014.02 7.9512e-15
2023.32 8.3683e-15
2032.66 7.8674e-15
2046.75 8.1676e-15
2056.2 7.8028e-15
2065.69 7.8054e-15
2075.22 8.3661e-15
2080.01 7.9174e-15
2084.8 8.2345e-15
2094.42 7.7577e-15
2104.09 7.795e-15
2113.8 7.8684e-15
2123.56 7.9788e-15
2133.36 7.3617e-15
2143.21 7.5509e-15
2153.1 7.8343e-15
2163.04 7.5682e-15
2173.03 7.4811e-15
2183.06 7.3269e-15
2193.13 7.6535e-15
2203.25 7.4264e-15
2213.43 7.0418e-15
2223.64 6.7853e-15
2233.91 7.2351e-15
2244.22 6.8931e-15
2254.58 6.5919e-15
2264.98 6.7856e-15
2275.44 6.9851e-15
2285.94 7.1905e-15
2296.49 6.8132e-15
2307.09 6.8382e-15
2312.41 6.5199e-15
2323.08 5.1149e-15
2333.81 6.1014e-15
2344.58 5.9297e-15
2355.4 6.4363e-15
2366.27 5.9325e-15
2377.19 6.1354e-15
2382.67 5.7168e-15
2393.67 6.1201e-15
2404.72 5.88e-15
2415.82 6.0394e-15
2426.97 6.4211e-15
2432.57 6.1648e-15
2443.8 6.5546e-15
2455.07 6.4739e-15
2466.41 6.4387e-15
2477.79 6.2148e-15
2483.5 6.4083e-15
2494.97 6.0448e-15
2506.48 6.73e-15
2512.26 6.0302e-15
2518.05 6.2181e-15
2523.86 5.9563e-15
2535.51 6.0481e-15
2547.21 5.9603e-15
2553.08 6.3913e-15
2564.87 6.2552e-15
2576.71 6.6358e-15
2582.65 6.5648e-15
2594.57 6.4995e-15
2606.54 6.2884e-15
2612.55 6.2211e-15
2624.61 6.5093e-15
2636.73 6.7328e-15
2642.8 7.2867e-15
2655.0 7.4508e-15
2667.26 6.7745e-15
2673.4 7.0993e-15
2685.74 7.1104e-15
2691.94 6.7956e-15
2704.36 6.997e-15
2716.84 6.6772e-15
2723.11 6.6672e-15
2735.68 7.0086e-15
2741.98 6.1373e-15
2754.64 6.2902e-15
2767.35 6.5368e-15
2773.73 6.8346e-15
2786.54 6.5075e-15
2792.96 5.3304e-15
2805.85 5.7209e-15
2812.32 6.8206e-15
2825.3 7.1537e-15
2831.81 6.8847e-15
2844.89 6.7235e-15
2858.02 6.506e-15
2864.61 7.1395e-15
2877.83 7.1679e-15
2884.46 7.1409e-15
2897.78 7.1363e-15
2911.15 7.7304e-15
2931.33 7.4696e-15
2951.65 7.3859e-15
2972.11 7.5251e-15
2992.71 7.5619e-15
3013.46 7.6693e-15
3027.37 7.7003e-15
3048.35 7.7204e-15
3069.48 7.7765e-15
3090.76 7.8511e-15
3112.18 7.872e-15
3126.55 7.7958e-15
3148.22 7.8528e-15
3170.04 7.8922e-15
3192.01 7.5402e-15
3206.75 7.8194e-15
3228.97 7.5053e-15
3251.36 7.9904e-15
3266.37 8.2674e-15
3289.01 8.2335e-15
3311.81 8.2376e-15
3319.44 8.2834e-15
3327.09 8.3487e-15
3334.76 8.6105e-15
3342.45 8.1553e-15
3350.15 8.5477e-15
3357.88 8.2844e-15
3365.62 7.7925e-15
3373.38 7.6576e-15
3381.15 8.119e-15
3388.95 8.5491e-15
3396.76 8.2099e-15
3404.59 8.487e-15
3412.44 8.1315e-15
3420.3 8.4448e-15
3428.19 8.4141e-15
3436.09 8.4612e-15
3444.01 7.742e-15
3451.95 8.5955e-15
3459.91 8.2736e-15
3467.89 8.2413e-15
3475.88 8.3972e-15
3483.89 8.2846e-15
3491.92 8.4608e-15
3499.97 7.8986e-15
3508.04 8.2925e-15
3516.13 7.9584e-15
3524.23 8.2597e-15
3532.36 8.4938e-15
3540.5 8.6745e-15
3548.66 8.8794e-15
3556.84 8.6203e-15
3565.04 8.723e-15
3573.26 8.0317e-15
3581.5 7.979e-15
3589.54 6.8633e-15
3592.22 8.0765e-15
3594.9 7.7882e-15
3597.57 7.4811e-15
3600.25 7.7508e-15
3602.92 7.9227e-15
3605.6 8.7084e-15
3608.27 8.2768e-15
3610.95 7.7873e-15
3613.62 7.2749e-15
3616.3 7.6321e-15
3618.97 7.8399e-15
3621.65 8.8462e-15
3624.33 8.9877e-15
3627.0 9.1252e-15
3629.68 9.337e-15
3632.35 9.1224e-15
3635.03 8.7395e-15
3637.7 9.1577e-15
3640.38 9.3075e-15
3643.05 6.2038e-15
3645.73 6.9136e-15
3648.4 8.0525e-15
3651.08 7.4967e-15
3653.76 8.6677e-15
3656.43 9.3286e-15
3659.11 8.3162e-15
3661.78 9.4654e-15
3664.46 8.7329e-15
3667.13 8.7044e-15
3669.81 9.6271e-15
3672.48 8.778e-15
3675.16 7.675e-15
3677.83 7.943e-15
3680.51 8.7728e-15
3683.19 7.4641e-15
3685.86 8.1721e-15
3688.54 8.7293e-15
3691.21 9.137e-15
3693.89 8.1214e-15
3696.56 8.3856e-15
3699.24 8.354e-15
3701.91 9.3238e-15
3704.59 8.5305e-15
3707.26 7.9265e-15
3709.94 8.2468e-15
3712.62 1.0025e-14
3715.29 1.2706e-14
3717.97 1.8193e-14
3720.64 2.9285e-14
3723.32 4.5302e-14
3725.99 6.1273e-14
3728.67 6.6058e-14
3731.34 5.4803e-14
3734.02 3.6113e-14
3736.69 2.0199e-14
3739.37 1.3176e-14
3742.05 9.7746e-15
3744.72 8.5022e-15
3747.4 8.3475e-15
3750.07 7.8199e-15
3752.75 8.1477e-15
3755.42 8.7879e-15
3758.1 9.3959e-15
3760.77 9.688e-15
3763.45 9.0028e-15
3766.12 9.7308e-15
3768.8 9.6504e-15
3771.48 9.4022e-15
3774.15 1.0049e-14
3776.83 9.7271e-15
3779.5 1.0042e-14
3782.18 1.0612e-14
3784.85 1.0673e-14
3787.53 1.0233e-14
3790.2 1.0825e-14
3792.88 9.6402e-15
3795.55 8.7262e-15
3798.23 8.6983e-15
3800.91 9.2731e-15
3803.58 9.9522e-15
3806.26 1.0554e-14
3808.93 1.0449e-14
3811.61 1.0147e-14
3814.28 1.0142e-14
3816.96 9.9686e-15
3819.63 1.0332e-14
3822.31 9.4742e-15
3824.98 9.7544e-15
3827.66 8.4363e-15
3830.34 8.0039e-15
3833.01 8.0024e-15
3835.69 8.4395e-15
3838.36 7.4894e-15
3841.04 7.5936e-15
3843.71 9.3981e-15
3846.39 1.0096e-14
3849.06 1.0112e-14
3851.74 1.078e-14
3854.41 1.0719e-14
3857.09 1.1331e-14
3859.77 1.1873e-14
3862.44 1.3482e-14
3865.12 1.6039e-14
3867.79 1.7626e-14
3870.47 1.7352e-14
3873.14 1.5537e-14
3875.82 1.3778e-14
3878.49 1.1944e-14
3881.17 1.1311e-14
3883.84 1.0748e-14
3886.52 1.1178e-14
3889.2 1.1081e-14
3891.87 1.108e-14
3894.55 1.0275e-14
3897.22 1.0234e-14
3899.9 1.0925e-14
3902.57 1.0905e-14
3905.25 1.0586e-14
3907.92 1.0816e-14
3910.6 1.1377e-14
3913.27 1.2478e-14
3915.95 1.22e-14
3918.63 1.1955e-14
3921.3 1.1181e-14
3923.98 1.1143e-14
3926.65 1.0825e-14
3929.33 9.4923e-15
3932.0 8.7673e-15
3934.68 8.7931e-15
3937.35 8.8331e-15
3940.03 9.1964e-15
3942.7 9.7918e-15
3945.38 1.0636e-14
3948.06 1.0876e-14
3950.73 1.0679e-14
3953.41 1.092e-14
3956.08 1.1502e-14
3958.76 1.1233e-14
3961.43 1.1572e-14
3964.11 1.1536e-14
3966.78 1.1771e-14
3969.46 1.1252e-14
3972.13 1.122e-14
3974.81 1.0468e-14
3977.49 1.0406e-14
3980.16 1.0874e-14
3982.84 1.1431e-14
3985.51 1.176e-14
3988.19 1.2797e-14
3990.86 1.2549e-14
3993.54 1.277e-14
3996.21 1.268e-14
3998.89 1.2528e-14
4001.56 1.3401e-14
4004.24 1.3185e-14
4006.92 1.2638e-14
4009.59 1.2873e-14
4012.27 1.2963e-14
4014.94 1.4218e-14
4017.62 1.3098e-14
4020.29 1.3376e-14
4022.97 1.2948e-14
4025.64 1.3726e-14
4028.32 1.3034e-14
4030.99 1.3969e-14
4033.67 1.3099e-14
4036.35 1.3007e-14
4039.02 1.3398e-14
4041.7 1.3872e-14
4044.37 1.405e-14
4047.05 1.2679e-14
4049.72 1.3173e-14
4052.4 1.3556e-14
4055.07 1.3024e-14
4057.75 1.2339e-14
4060.42 1.2989e-14
4063.1 1.3484e-14
4065.78 1.4334e-14
4068.45 1.3719e-14
4071.13 1.4372e-14
4073.8 1.418e-14
4076.48 1.3272e-14
4079.15 1.2926e-14
4081.83 1.3325e-14
4084.5 1.3118e-14
4087.18 1.3306e-14
4089.85 1.289e-14
4092.53 1.3165e-14
4095.21 1.2068e-14
4097.88 1.3148e-14
4100.56 1.41e-14
4103.23 1.4074e-14
4105.91 1.3002e-14
4108.58 1.2244e-14
4111.26 1.1835e-14
4113.93 1.2492e-14
4116.61 1.2718e-14
4119.28 1.2743e-14
4121.96 1.2812e-14
4124.64 1.3095e-14
4127.31 1.2371e-14
4129.99 1.2396e-14
4132.66 1.1991e-14
4135.34 1.2882e-14
4138.01 1.3563e-14
4140.69 1.3094e-14
4143.36 1.3006e-14
4146.04 1.3163e-14
4148.71 1.3001e-14
4151.39 1.2478e-14
4154.07 1.3228e-14
4156.74 1.2776e-14
4159.42 1.3515e-14
4162.09 1.3679e-14
4164.77 1.363e-14
4167.44 1.346e-14
4170.12 1.3003e-14
4172.79 1.2545e-14
4175.47 1.2522e-14
4178.14 1.2414e-14
4180.82 1.2298e-14
4183.5 1.3018e-14
4186.17 1.3831e-14
4188.85 1.3016e-14
4191.52 1.33e-14
4194.2 1.2863e-14
4196.87 1.2502e-14
4199.55 1.3114e-14
4202.22 1.2302e-14
4204.9 1.2704e-14
4207.57 1.3443e-14
4210.25 1.3711e-14
4212.93 1.3806e-14
4215.6 1.2796e-14
4218.28 1.3333e-14
4220.95 1.3841e-14
4223.63 1.3394e-14
4226.3 1.3604e-14
4228.98 1.2741e-14
4231.65 1.2419e-14
4234.33 1.2868e-14
4237.0 1.2889e-14
4239.68 1.3784e-14
4242.36 1.3732e-14
4245.03 1.3836e-14
4247.71 1.3926e-14
4250.38 1.3756e-14
4253.06 1.3547e-14
4255.73 1.4053e-14
4258.41 1.3964e-14
4261.08 1.2992e-14
4263.76 1.3559e-14
4266.43 1.3705e-14
4269.11 1.3631e-14
4271.79 1.3253e-14
4274.46 1.2976e-14
4277.14 1.3221e-14
4279.81 1.3352e-14
4282.49 1.3211e-14
4285.16 1.3133e-14
4287.84 1.3141e-14
4290.51 1.2532e-14
4293.19 1.2183e-14
4295.86 1.2058e-14
4298.54 1.2271e-14
4301.22 1.1757e-14
4303.89 1.125e-14
4306.57 1.1042e-14
4309.24 1.1219e-14
4311.92 1.1668e-14
4314.59 1.1973e-14
4317.27 1.2602e-14
4319.94 1.3177e-14
4322.62 1.3264e-14
4325.29 1.3287e-14
4327.97 1.3152e-14
4330.65 1.31e-14
4333.32 1.4274e-14
4336.0 1.6125e-14
4338.67 1.824e-14
4341.35 1.8917e-14
4344.02 1.8066e-14
4346.7 1.5775e-14
4349.37 1.4152e-14
4352.05 1.3398e-14
4354.72 1.3014e-14
4357.4 1.3655e-14
4360.08 1.4026e-14
4362.75 1.4555e-14
4365.43 1.4832e-14
4368.1 1.5126e-14
4370.78 1.4439e-14
4373.45 1.4043e-14
4376.13 1.4018e-14
4378.8 1.3362e-14
4381.48 1.2856e-14
4384.15 1.2701e-14
4386.83 1.3144e-14
4389.51 1.3104e-14
4392.18 1.2813e-14
4394.86 1.3024e-14
4397.53 1.3375e-14
4400.21 1.3737e-14
4402.88 1.2999e-14
4405.56 1.3613e-14
4408.23 1.3775e-14
4410.91 1.3326e-14
4413.58 1.3394e-14
4416.26 1.3718e-14
4418.94 1.4176e-14
4421.61 1.4295e-14
4424.29 1.4461e-14
4426.96 1.4657e-14
4429.64 1.446e-14
4432.31 1.4304e-14
4434.99 1.4415e-14
4437.66 1.4474e-14
4440.34 1.4406e-14
4443.01 1.4592e-14
4445.69 1.4333e-14
4448.37 1.4852e-14
4451.04 1.4936e-14
4453.72 1.4672e-14
4456.39 1.3872e-14
4459.07 1.3669e-14
4461.74 1.4234e-14
4464.42 1.4143e-14
4467.09 1.4789e-14
4469.77 1.5405e-14
4472.44 1.5487e-14
4475.12 1.5626e-14
4477.8 1.5033e-14
4480.47 1.5083e-14
4483.15 1.4499e-14
4485.82 1.3939e-14
4488.5 1.4516e-14
4491.17 1.4814e-14
4493.85 1.4932e-14
4496.52 1.4743e-14
4499.2 1.4807e-14
4501.87 1.5428e-14
4504.55 1.5588e-14
4507.23 1.5273e-14
4509.9 1.5762e-14
4512.58 1.5381e-14
4515.25 1.4909e-14
4517.93 1.5269e-14
4520.6 1.545e-14
4523.28 1.4895e-14
4525.95 1.458e-14
4528.63 1.4671e-14
4531.3 1.4024e-14
4533.98 1.4064e-14
4536.66 1.4583e-14
4539.33 1.4304e-14
4542.01 1.4776e-14
4544.68 1.4496e-14
4547.36 1.4516e-14
4550.03 1.4394e-14
4552.71 1.4417e-14
4555.38 1.4913e-14
4558.06 1.4957e-14
4560.73 1.5096e-14
4563.41 1.5389e-14
4566.09 1.5431e-14
4568.76 1.4871e-14
4571.44 1.5047e-14
4574.11 1.5212e-14
4576.79 1.5193e-14
4579.46 1.4861e-14
4582.14 1.4933e-14
4584.81 1.4654e-14
4587.49 1.4688e-14
4590.16 1.4588e-14
4592.84 1.4291e-14
4595.52 1.4712e-14
4598.19 1.4683e-14
4600.87 1.4414e-14
4603.54 1.5014e-14
4606.22 1.4309e-14
4608.89 1.49e-14
4611.57 1.5152e-14
4614.24 1.5542e-14
4616.92 1.5008e-14
4619.59 1.5045e-14
4622.27 1.5127e-14
4624.95 1.5539e-14
4627.62 1.5536e-14
4630.3 1.5621e-14
4632.97 1.5245e-14
4635.65 1.5291e-14
4638.32 1.4932e-14
4641.0 1.5542e-14
4643.67 1.5418e-14
4646.35 1.5259e-14
4649.02 1.5097e-14
4651.7 1.496e-14
4654.38 1.5481e-14
4657.05 1.5737e-14
4659.73 1.5877e-14
4662.4 1.5306e-14
4665.08 1.4864e-14
4667.75 1.4873e-14
4670.43 1.4214e-14
4673.1 1.4927e-14
4675.78 1.5502e-14
4678.45 1.5901e-14
4681.13 1.6632e-14
4683.81 1.6939e-14
4686.48 1.7225e-14
4689.16 1.7119e-14
4691.83 1.6654e-14
4694.51 1.6308e-14
4697.18 1.5837e-14
4699.86 1.5184e-14
4702.53 1.5023e-14
4705.21 1.4655e-14
4707.88 1.4785e-14
4710.56 1.5011e-14
4713.24 1.5265e-14
4715.91 1.5644e-14
4718.59 1.5405e-14
4721.26 1.5856e-14
4723.94 1.553e-14
4726.61 1.5115e-14
4729.29 1.5554e-14
4731.96 1.4863e-14
4734.64 1.5373e-14
4737.31 1.5448e-14
4739.99 1.534e-14
4742.67 1.5265e-14
4745.34 1.5751e-14
4748.02 1.5404e-14
4750.69 1.5343e-14
4753.37 1.5614e-14
4756.04 1.5699e-14
4758.72 1.5156e-14
4761.39 1.4894e-14
4764.07 1.5047e-14
4766.74 1.4854e-14
4769.42 1.4961e-14
4772.1 1.4932e-14
4774.77 1.5518e-14
4777.45 1.5657e-14
4780.12 1.5405e-14
4782.8 1.5175e-14
4785.47 1.5116e-14
4788.15 1.5357e-14
4790.82 1.4333e-14
4793.5 1.5257e-14
4796.17 1.5384e-14
4798.85 1.5402e-14
4801.53 1.4344e-14
4804.2 1.4616e-14
4806.88 1.5241e-14
4809.55 1.4613e-14
4812.23 1.514e-14
4814.9 1.4785e-14
4817.58 1.5432e-14
4820.25 1.4803e-14
4822.93 1.5087e-14
4825.6 1.5018e-14
4828.28 1.4934e-14
4830.96 1.4856e-14
4833.63 1.466e-14
4836.31 1.4276e-14
4838.98 1.4435e-14
4841.66 1.4944e-14
4844.33 1.4571e-14
4847.01 1.4883e-14
4849.68 1.4893e-14
4852.36 1.6567e-14
4855.03 1.9795e-14
4857.71 2.3853e-14
4860.39 2.84e-14
4863.06 2.9395e-14
4865.74 2.6696e-14
4868.41 2.0527e-14
4871.09 1.7038e-14
4873.76 1.4605e-14
4876.44 1.4177e-14
4879.11 1.3841e-14
4881.79 1.4226e-14
4884.46 1.4485e-14
4887.14 1.402e-14
4889.82 1.3963e-14
4892.49 1.4165e-14
4895.17 1.4839e-14
4897.84 1.4488e-14
4900.52 1.468e-14
4903.19 1.4216e-14
4905.87 1.5361e-14
4908.54 1.5028e-14
4911.22 1.468e-14
4913.89 1.4896e-14
4916.57 1.468e-14
4919.25 1.4573e-14
4921.92 1.4551e-14
4924.6 1.4784e-14
4927.27 1.4724e-14
4929.95 1.4823e-14
4932.62 1.4562e-14
4935.3 1.4534e-14
4937.97 1.4574e-14
4940.65 1.4618e-14
4943.32 1.487e-14
4946.0 1.6279e-14
4948.68 1.8188e-14
4951.35 2.161e-14
4954.03 2.7912e-14
4956.7 3.3238e-14
4959.38 3.6835e-14
4962.05 3.4809e-14
4964.73 2.9463e-14
4967.4 2.3345e-14
4970.08 1.9075e-14
4972.75 1.6408e-14
4975.43 1.5771e-14
4978.11 1.5335e-14
4980.78 1.4993e-14
4983.46 1.4847e-14
4986.13 1.4961e-14
4988.81 1.5538e-14
4991.48 1.6212e-14
4994.16 1.8552e-14
4996.83 2.4822e-14
4999.51 3.9951e-14
5002.18 5.5502e-14
5004.86 7.2745e-14
5007.54 8.0753e-14
5010.21 7.4671e-14
5012.89 5.8027e-14
5015.56 3.9043e-14
5018.24 2.5525e-14
5020.91 1.8534e-14
5023.59 1.6063e-14
5026.26 1.5174e-14
5028.94 1.4312e-14
5031.61 1.4113e-14
5034.29 1.4532e-14
5036.97 1.4197e-14
5039.64 1.4283e-14
5042.32 1.3927e-14
5044.99 1.4136e-14
5047.67 1.359e-14
5050.34 1.4099e-14
5053.02 1.4502e-14
5055.69 1.4795e-14
5058.37 1.507e-14
5061.04 1.5251e-14
5063.72 1.4746e-14
5066.4 1.4079e-14
5069.07 1.3806e-14
5071.75 1.3861e-14
5074.42 1.3765e-14
5077.1 1.4089e-14
5079.77 1.3461e-14
5082.45 1.3392e-14
5085.12 1.4082e-14
5087.8 1.4087e-14
5090.47 1.4107e-14
5093.15 1.4935e-14
5095.83 1.409e-14
5098.5 1.426e-14
5101.18 1.3961e-14
5103.85 1.4315e-14
5106.53 1.3885e-14
5109.2 1.4255e-14
5111.88 1.4156e-14
5114.55 1.4374e-14
5117.23 1.434e-14
5119.9 1.3837e-14
5122.58 1.3721e-14
5125.26 1.327e-14
5127.93 1.4064e-14
5130.61 1.3641e-14
5133.28 1.3656e-14
5135.96 1.363e-14
5138.63 1.3992e-14
5141.31 1.3717e-14
5143.98 1.3686e-14
5146.66 1.3821e-14
5149.33 1.3931e-14
5152.01 1.3514e-14
5154.69 1.3888e-14
5157.36 1.4068e-14
5160.04 1.4221e-14
5162.71 1.3814e-14
5165.39 1.3461e-14
5168.06 1.2708e-14
5170.74 1.2578e-14
5173.41 1.2312e-14
5176.09 1.2812e-14
5178.76 1.3495e-14
5181.44 1.3158e-14
5184.12 1.3078e-14
5186.79 1.2823e-14
5189.47 1.3194e-14
5192.14 1.3853e-14
5194.82 1.4862e-14
5197.49 1.5123e-14
5200.17 1.5495e-14
5202.84 1.5131e-14
5205.52 1.498e-14
5208.19 1.4073e-14
5210.87 1.3809e-14
5213.55 1.4021e-14
5216.22 1.4341e-14
5218.9 1.4299e-14
5221.57 1.4499e-14
5224.25 1.4344e-14
5226.92 1.3859e-14
5229.6 1.3929e-14
5232.27 1.369e-14
5234.95 1.3919e-14
5237.62 1.4345e-14
5240.3 1.4285e-14
5242.98 1.4456e-14
5245.65 1.4614e-14
5248.33 1.4803e-14
5251.0 1.4257e-14
5253.68 1.4691e-14
5256.35 1.4214e-14
5259.03 1.4473e-14
5261.7 1.4272e-14
5264.38 1.366e-14
5267.05 1.3459e-14
5269.73 1.3507e-14
5272.41 1.3142e-14
5275.08 1.3498e-14
5277.76 1.4056e-14
5280.43 1.4459e-14
5283.11 1.4221e-14
5285.78 1.5385e-14
5288.46 1.5265e-14
5291.13 1.5333e-14
5293.81 1.5074e-14
5296.48 1.4987e-14
5299.16 1.4681e-14
5301.84 1.4239e-14
5304.51 1.4655e-14
5307.19 1.5261e-14
5309.86 1.4863e-14
5312.54 1.5075e-14
5315.21 1.4831e-14
5317.89 1.5069e-14
5320.56 1.4663e-14
5323.24 1.5122e-14
5325.91 1.4199e-14
5328.59 1.4623e-14
5331.27 1.4411e-14
5333.94 1.4789e-14
5336.62 1.4252e-14
5339.29 1.4401e-14
5341.97 1.4429e-14
5344.64 1.4546e-14
5347.32 1.5007e-14
5349.99 1.5073e-14
5352.67 1.5101e-14
5355.34 1.5698e-14
5358.02 1.5364e-14
5360.7 1.5401e-14
5363.37 1.5098e-14
5366.05 1.424e-14
5368.72 1.5323e-14
5371.4 1.4377e-14
5374.07 1.5077e-14
5376.75 1.4573e-14
5379.42 1.5234e-14
5382.1 1.5099e-14
5384.77 1.506e-14
5387.45 1.4453e-14
5390.13 1.5086e-14
5392.8 1.4814e-14
5395.48 1.4128e-14
5398.15 1.3858e-14
5400.83 1.4112e-14
5403.5 1.3372e-14
5406.18 1.429e-14
5408.85 1.3413e-14
5411.53 1.4085e-14
5414.2 1.3886e-14
5416.88 1.4001e-14
5419.55 1.4369e-14
5422.23 1.4267e-14
5424.91 1.4667e-14
5427.58 1.4261e-14
5430.26 1.4873e-14
5432.93 1.4216e-14
5435.61 1.4464e-14
5438.28 1.4324e-14
5440.96 1.4642e-14
5443.63 1.5096e-14
5446.31 1.4183e-14
5448.98 1.4577e-14
5451.66 1.4313e-14
5454.34 1.4531e-14
5457.01 1.4268e-14
5459.69 1.513e-14
5462.36 1.4742e-14
5465.04 1.4717e-14
5467.71 1.4799e-14
5470.39 1.4896e-14
5473.06 1.4731e-14
5475.74 1.4554e-14
5478.41 1.3873e-14
5481.09 1.4457e-14
5483.77 1.4856e-14
5486.44 1.4615e-14
5489.12 1.4666e-14
5491.79 1.413e-14
5494.47 1.4313e-14
5497.14 1.4744e-14
5499.82 1.5163e-14
5502.49 1.4515e-14
5505.17 1.412e-14
5507.84 1.4383e-14
5510.52 1.4819e-14
5513.2 1.4697e-14
5515.87 1.4613e-14
5518.55 1.4562e-14
5521.22 1.4463e-14
5523.9 1.4487e-14
5526.57 1.4731e-14
5529.25 1.4849e-14
5531.92 1.453e-14
5534.6 1.4282e-14
5537.27 1.4203e-14
5539.95 1.4774e-14
5542.63 1.4532e-14
5545.3 1.5088e-14
5547.98 1.4418e-14
5550.65 1.4567e-14
5553.33 1.4817e-14
5556.0 1.5195e-14
5558.68 1.4349e-14
5561.35 1.4527e-14
5564.03 1.4752e-14
5566.7 1.4786e-14
5569.38 1.4548e-14
5572.06 1.4464e-14
5574.73 1.4716e-14
5577.41 1.4668e-14
5580.08 1.5097e-14
5582.76 1.4649e-14
5585.43 1.453e-14
5588.11 1.4395e-14
5590.78 1.3527e-14
5593.46 1.4208e-14
5596.13 1.4105e-14
5598.81 1.4317e-14
5601.49 1.4554e-14
5604.16 1.4461e-14
5606.84 1.4876e-14
5609.51 1.4873e-14
5612.19 1.4392e-14
5614.86 1.4187e-14
5617.54 1.4406e-14
5620.21 1.4442e-14
5622.89 1.4816e-14
5625.56 1.4367e-14
5628.24 1.4585e-14
5630.92 1.4177e-14
5633.59 1.4842e-14
5636.27 1.5042e-14
5638.94 1.4301e-14
5641.62 1.4413e-14
5644.29 1.4766e-14
5646.97 1.4397e-14
5649.64 1.4553e-14
5652.32 1.3924e-14
5654.99 1.4126e-14
5657.67 1.4413e-14
5660.35 1.4106e-14
5663.02 1.402e-14
5665.7 1.4324e-14
5668.37 1.4558e-14
5671.05 1.4749e-14
5673.72 1.4332e-14
5676.4 1.4808e-14
5679.07 1.486e-14
5681.75 1.4617e-14
5684.42 1.4374e-14
5687.1 1.4257e-14
5689.78 1.3786e-14
5692.45 1.4995e-14
5695.13 1.4897e-14
5697.8 1.4898e-14
5700.48 1.4482e-14
5703.15 1.4403e-14
5705.83 1.4181e-14
5708.5 1.4233e-14
5711.18 1.3853e-14
5713.85 1.4284e-14
5716.53 1.4427e-14
5719.21 1.4584e-14
5721.88 1.4297e-14
5724.56 1.4952e-14
5727.23 1.4833e-14
5729.91 1.4401e-14
5732.58 1.5027e-14
5735.26 1.4664e-14
5737.93 1.4944e-14
5740.61 1.4999e-14
5743.28 1.4789e-14
5745.96 1.4994e-14
5748.64 1.4457e-14
5751.31 1.4951e-14
5753.99 1.4604e-14
5756.66 1.4554e-14
5759.34 1.4268e-14
5762.01 1.4612e-14
5764.69 1.4656e-14
5767.36 1.5024e-14
5770.04 1.4984e-14
5772.71 1.4583e-14
5775.39 1.4283e-14
5778.07 1.4098e-14
5780.74 1.4398e-14
5783.42 1.4613e-14
5786.09 1.3873e-14
5788.77 1.4124e-14
5791.44 1.4307e-14
5794.12 1.4269e-14
5796.79 1.4725e-14
5799.47 1.4652e-14
5802.14 1.4568e-14
5804.82 1.5031e-14
5807.5 1.463e-14
5810.17 1.4586e-14
5812.85 1.4574e-14
5815.52 1.4373e-14
5818.2 1.4366e-14
5820.87 1.461e-14
5823.55 1.4887e-14
5826.22 1.5086e-14
5828.9 1.4894e-14
5831.57 1.4669e-14
5834.25 1.4419e-14
5836.93 1.5214e-14
5839.6 1.4624e-14
5842.28 1.4661e-14
5844.95 1.4944e-14
5847.63 1.4456e-14
5850.3 1.4569e-14
5852.98 1.4408e-14
5855.65 1.4636e-14
5858.33 1.4298e-14
5861.0 1.4367e-14
5863.68 1.4592e-14
5866.36 1.5052e-14
5869.03 1.4882e-14
5871.71 1.5463e-14
5874.38 1.5756e-14
5877.06 1.6498e-14
5879.73 1.6371e-14
5882.41 1.5211e-14
5885.08 1.4809e-14
5887.76 1.3571e-14
5890.43 1.3162e-14
5893.11 1.3038e-14
5895.79 1.2706e-14
5898.46 1.2764e-14
5901.14 1.3071e-14
5903.81 1.3947e-14
5906.49 1.3707e-14
5909.16 1.3963e-14
5911.84 1.4195e-14
5914.51 1.4394e-14
5917.19 1.4296e-14
5919.86 1.4174e-14
5922.54 1.4429e-14
5925.22 1.4218e-14
5927.89 1.3945e-14
5930.57 1.4786e-14
5933.24 1.4899e-14
5935.92 1.4322e-14
5938.59 1.4523e-14
5941.27 1.4483e-14
5943.94 1.4076e-14
5946.62 1.4085e-14
5949.29 1.4262e-14
5951.97 1.3725e-14
5954.65 1.4087e-14
5957.32 1.4565e-14
5960.0 1.4785e-14
5962.67 1.4604e-14
5965.35 1.4317e-14
5968.02 1.4286e-14
5970.7 1.4778e-14
5973.37 1.4497e-14
5976.05 1.4003e-14
5978.72 1.3827e-14
5981.4 1.4257e-14
5984.08 1.416e-14
5986.75 1.4329e-14
5989.43 1.4444e-14
5992.1 1.4567e-14
5994.78 1.4294e-14
5997.45 1.4175e-14
6000.13 1.4507e-14
6002.8 1.3925e-14
6005.48 1.3688e-14
6008.15 1.3835e-14
6010.83 1.3902e-14
6013.51 1.4016e-14
6016.18 1.3828e-14
6018.86 1.3354e-14
6021.53 1.3763e-14
6024.21 1.3923e-14
6026.88 1.3891e-14
6029.56 1.4191e-14
6032.23 1.4465e-14
6034.91 1.4449e-14
6037.58 1.441e-14
6040.26 1.4732e-14
6042.94 1.487e-14
6045.61 1.4433e-14
6048.29 1.4516e-14
6050.96 1.481e-14
6053.64 1.4786e-14
6056.31 1.4453e-14
6058.99 1.4532e-14
6061.66 1.4757e-14
6064.34 1.4716e-14
6067.01 1.4304e-14
6069.69 1.4232e-14
6072.37 1.4303e-14
6075.04 1.4312e-14
6077.72 1.4575e-14
6080.39 1.4927e-14
6083.07 1.4677e-14
6085.74 1.4464e-14
6088.42 1.4639e-14
6091.09 1.3967e-14
6093.77 1.4088e-14
6096.44 1.4583e-14
6099.12 1.4604e-14
6101.8 1.3933e-14
6104.47 1.4532e-14
6107.15 1.4049e-14
6109.82 1.4174e-14
6112.5 1.4533e-14
6115.17 1.4421e-14
6117.85 1.4702e-14
6120.52 1.4407e-14
6123.2 1.4227e-14
6125.87 1.4382e-14
6128.55 1.4779e-14
6131.23 1.4126e-14
6133.9 1.3988e-14
6136.58 1.4664e-14
6139.25 1.3961e-14
6141.93 1.39e-14
6144.6 1.3461e-14
6147.28 1.4159e-14
6149.95 1.4184e-14
6152.63 1.4387e-14
6155.3 1.4192e-14
6157.98 1.369e-14
6160.66 1.2906e-14
6163.33 1.3482e-14
6166.01 1.3829e-14
6168.68 1.3298e-14
6171.36 1.3763e-14
6174.03 1.3728e-14
6176.71 1.3859e-14
6179.38 1.401e-14
6182.06 1.3874e-14
6184.73 1.3764e-14
6187.41 1.4581e-14
6190.09 1.3832e-14
6192.76 1.3625e-14
6195.44 1.3603e-14
6198.11 1.3805e-14
6200.79 1.4159e-14
6203.46 1.4037e-14
6206.14 1.4541e-14
6208.81 1.377e-14
6211.49 1.4144e-14
6214.16 1.4077e-14
6216.84 1.3642e-14
6219.52 1.3123e-14
6222.19 1.3496e-14
6224.87 1.337e-14
6227.54 1.3547e-14
6230.22 1.3453e-14
6232.89 1.3216e-14
6235.57 1.2962e-14
6238.24 1.3198e-14
6240.92 1.3258e-14
6243.59 1.3213e-14
6246.27 1.2587e-14
6248.95 1.2738e-14
6251.62 1.3024e-14
6254.3 1.333e-14
6256.97 1.3463e-14
6259.65 1.319e-14
6262.32 1.3265e-14
6265.0 1.3441e-14
6267.67 1.341e-14
6270.35 1.3496e-14
6273.02 1.3772e-14
6275.7 1.3709e-14
6278.38 1.3805e-14
6281.05 1.3616e-14
6283.73 1.3895e-14
6286.4 1.4051e-14
6289.08 1.452e-14
6291.75 1.5445e-14
6294.43 1.634e-14
6297.1 1.7596e-14
6299.78 1.8292e-14
6302.45 1.8549e-14
6305.13 1.8109e-14
6307.81 1.6729e-14
6310.48 1.5165e-14
6313.16 1.4497e-14
6315.83 1.3811e-14
6318.51 1.4169e-14
6321.18 1.3829e-14
6323.86 1.3031e-14
6326.53 1.2666e-14
6329.21 1.3222e-14
6331.88 1.3688e-14
6334.56 1.3487e-14
6337.24 1.3365e-14
6339.91 1.3537e-14
6342.59 1.3934e-14
6345.26 1.3768e-14
6347.94 1.3475e-14
6350.61 1.3949e-14
6353.29 1.4291e-14
6355.96 1.4658e-14
6358.64 1.4163e-14
6361.31 1.4525e-14
6363.99 1.5156e-14
6366.67 1.5297e-14
6369.34 1.4553e-14
6372.02 1.456e-14
6374.69 1.4598e-14
6377.37 1.3866e-14
6380.04 1.3269e-14
6382.72 1.3727e-14
6385.39 1.3904e-14
6388.07 1.4156e-14
6390.74 1.3602e-14
6393.42 1.385e-14
6396.1 1.3597e-14
6398.77 1.2659e-14
6401.45 1.2837e-14
6404.12 1.4128e-14
6406.8 1.3562e-14
6409.47 1.3802e-14
6412.15 1.3881e-14
6414.82 1.3848e-14
6417.5 1.4087e-14
6420.17 1.3898e-14
6422.85 1.3738e-14
6425.53 1.388e-14
6428.2 1.3704e-14
6430.88 1.3862e-14
6433.55 1.3622e-14
6436.23 1.3374e-14
6438.9 1.4189e-14
6441.58 1.4473e-14
6444.25 1.3978e-14
6446.93 1.4074e-14
6449.6 1.3321e-14
6452.28 1.3086e-14
6454.96 1.3841e-14
6457.63 1.3428e-14
6460.31 1.3897e-14
6462.98 1.3717e-14
6465.66 1.3519e-14
6468.33 1.3597e-14
6471.01 1.4108e-14
6473.68 1.4091e-14
6476.36 1.3784e-14
6479.03 1.3735e-14
6481.71 1.343e-14
6484.39 1.4288e-14
6487.06 1.3758e-14
6489.74 1.3313e-14
6492.41 1.3212e-14
6495.09 1.3573e-14
6497.76 1.3756e-14
6500.44 1.3308e-14
6503.11 1.3064e-14
6505.79 1.384e-14
6508.46 1.3865e-14
6511.14 1.4337e-14
6513.82 1.4492e-14
6516.49 1.3704e-14
6519.17 1.3939e-14
6521.84 1.375e-14
6524.52 1.3745e-14
6527.19 1.4453e-14
6529.87 1.4244e-14
6532.54 1.47e-14
6535.22 1.5474e-14
6537.89 1.6754e-14
6540.57 1.8712e-14
6543.25 2.1754e-14
6545.92 2.585e-14
6548.6 2.9224e-14
6551.27 3.196e-14
6553.95 3.6538e-14
6556.62 4.3256e-14
6559.3 5.5812e-14
6561.97 6.7276e-14
6564.65 7.1423e-14
6567.32 6.2867e-14
6570.0 4.8581e-14
6572.68 3.6192e-14
6575.35 3.189e-14
6578.03 3.5157e-14
6580.7 4.1564e-14
6583.38 4.7991e-14
6586.05 4.6691e-14
6588.73 3.9602e-14
6591.4 3.0073e-14
6594.08 2.1436e-14
6596.75 1.639e-14
6599.43 1.3873e-14
6602.11 1.3371e-14
6604.78 1.3634e-14
6607.46 1.3488e-14
6610.13 1.2948e-14
6612.81 1.3383e-14
6615.48 1.3375e-14
6618.16 1.4063e-14
6620.83 1.4065e-14
6623.51 1.4095e-14
6626.18 1.3608e-14
6628.86 1.3144e-14
6631.54 1.3156e-14
6634.21 1.3435e-14
6636.89 1.3245e-14
6639.56 1.3172e-14
6642.24 1.3878e-14
6653.72 1.3658e-14
6669.06 1.3254e-14
6684.43 1.301e-14
6699.85 1.3591e-14
6715.29 1.3495e-14
6730.77 1.3401e-14
6746.29 1.3246e-14
6761.84 1.3306e-14
6777.42 1.3213e-14
6793.05 1.3181e-14
6808.71 1.3424e-14
6824.4 1.3485e-14
6840.13 1.3483e-14
6855.91 1.342e-14
6871.71 1.2873e-14
6887.55 1.3232e-14
6903.43 1.3231e-14
6919.34 1.326e-14
6935.29 1.3197e-14
6951.28 1.3534e-14
6967.3 1.3409e-14
6983.36 1.2922e-14
6999.47 1.3467e-14
7015.6 1.3342e-14
7031.77 1.2977e-14
7047.98 1.3681e-14
7064.23 1.3124e-14
7080.51 1.3214e-14
7096.83 1.2531e-14
7113.2 1.2704e-14
7129.59 1.2673e-14
7146.03 1.2526e-14
7162.5 1.2612e-14
7179.01 1.2552e-14
7195.56 1.1794e-14
7212.15 1.2235e-14
7228.78 1.2605e-14
7245.44 1.2662e-14
7262.14 1.266e-14
7278.88 1.2747e-14
7295.66 1.2341e-14
7312.48 1.2951e-14
7329.34 1.319e-14
7346.23 1.3464e-14
7363.17 1.268e-14
7380.14 1.3523e-14
7397.16 1.2943e-14
7414.21 1.3365e-14
7431.3 1.2939e-14
7448.43 1.3118e-14
7465.6 1.3483e-14
7482.81 1.3327e-14
7500.06 1.3113e-14
7517.35 1.3263e-14
7534.68 1.3633e-14
7552.05 1.3568e-14
7569.46 1.3411e-14
7586.91 1.344e-14
7604.39 1.3224e-14
7621.93 1.3314e-14
7639.5 1.2979e-14
7657.11 1.3067e-14
7674.76 1.1726e-14
7692.45 1.2737e-14
7710.18 1.194e-14
7727.96 1.2705e-14
7745.77 1.2732e-14
7763.63 1.2556e-14
7781.53 1.21e-14
7799.46 1.2495e-14
7817.44 1.2407e-14
7835.46 1.2695e-14
7853.53 1.281e-14
7871.63 1.2779e-14
7889.78 1.2515e-14
7907.97 1.2399e-14
7926.2 1.1949e-14
7944.47 1.2086e-14
7962.78 1.2309e-14
7981.14 1.2421e-14
7999.53 1.2563e-14
8017.97 1.2446e-14
8036.46 1.205e-14
8054.98 1.2216e-14
8073.55 1.2672e-14
8092.17 1.2269e-14
8110.82 1.2553e-14
8129.52 1.258e-14
8148.26 1.252e-14
8167.04 1.2605e-14
8185.87 1.1844e-14
8204.74 1.1599e-14
8223.65 1.2456e-14
8242.61 1.2171e-14
8261.61 1.2452e-14
8280.66 1.228e-14
8299.75 1.2278e-14
8318.88 1.2052e-14
8338.06 1.2162e-14
8357.28 1.2049e-14
8376.54 1.2528e-14
8395.85 1.1503e-14
8415.21 1.241e-14
8434.6 1.1877e-14
8454.05 1.1658e-14
8473.54 1.1846e-14
8493.07 1.2176e-14
8512.65 1.1441e-14
8532.27 1.2033e-14
8551.94 7.8041e-15
8571.66 1.1975e-14
8591.42 1.1727e-14
8611.22 1.1699e-14
8631.07 1.1805e-14
8650.97 1.194e-14
8670.91 7.708e-15
8690.9 1.1399e-14
8710.93 1.1663e-14
8731.02 1.2239e-14
8751.14 1.1606e-14
8771.31 1.1847e-14
8791.54 1.2177e-14
8811.8 1.2064e-14
8832.11 1.1787e-14
8852.48 1.1922e-14
8872.88 1.0527e-14
8893.34 1.1408e-14
8913.84 1.1619e-14
8934.39 1.1484e-14
8954.98 1.1169e-14
8975.63 1.0964e-14
8996.32 1.0445e-14
9017.06 1.081e-14
9037.84 1.137e-14
9058.68 1.2266e-14
9079.56 1.093e-14
9100.49 1.1365e-14
9121.47 1.1898e-14
9142.5 1.1205e-14
9163.57 1.0101e-14
9184.69 1.0099e-14
9205.87 1.1072e-14
9227.09 1.0621e-14
9248.36 1.0816e-14
9269.68 1.1143e-14
9291.05 1.1296e-14
9312.47 1.1505e-14
9333.94 1.1529e-14
9355.45 1.1501e-14
9377.02 1.1341e-14
9398.63 1.1471e-14
9420.3 1.1234e-14
9442.02 1.1388e-14
9463.78 1.1598e-14
9485.6 1.1596e-14
9507.47 1.133e-14
9529.38 1.1302e-14
9551.35 1.0842e-14
9573.37 1.1273e-14
9595.44 1.1533e-14
9617.55 1.1399e-14
9639.73 1.145e-14
9661.95 1.1317e-14
9684.22 1.1446e-14
9706.55 1.1287e-14
9728.92 1.1182e-14
9751.35 1.1129e-14
9773.83 1.1178e-14
9796.36 1.1049e-14
9818.95 1.1252e-14
9841.58 1.1198e-14
9864.27 1.1145e-14
9887.0 1.1118e-14
9909.79 1.1065e-14
9932.64 1.1139e-14
9955.54 1.1163e-14
9978.49 1.1161e-14
10001.49 1.1108e-14
10024.55 1.103e-14
10070.82 1.085e-14
10117.31 1.1124e-14
10164.0 1.1044e-14
10234.45 1.1114e-14
10281.7 1.1136e-14
10305.4 1.1108e-14
10496.99 1.0772e-14
10692.14 1.0335e-14
10890.92 9.9382e-15
11093.41 9.5567e-15
11299.65 9.4256e-15
11509.72 9.4256e-15
11696.74 9.211e-15
11886.79 8.8574e-15
12107.78 8.756e-15
12304.53 8.6359e-15
12504.46 8.4006e-15
12707.64 8.2283e-15
12914.12 8.0595e-15
13093.78 7.9306e-15
13306.53 7.6968e-15
13491.65 7.5563e-15
13710.87 7.4184e-15
13901.61 7.15e-15
14094.98 6.8282e-15
14291.06 6.7345e-15
14489.87 6.7656e-15
14691.45 6.551e-15
14895.83 6.6421e-15
15103.05 6.6728e-15
15313.16 6.7812e-15
15490.48 6.7345e-15
15705.98 6.6116e-15
15887.83 6.3578e-15
16108.85 6.3725e-15
16295.39 6.3578e-15
16484.08 6.2706e-15
16713.4 6.2562e-15
16906.92 6.1845e-15
17102.7 6.0857e-15
17300.74 5.8521e-15
17501.08 5.6926e-15
17703.74 5.4614e-15
17908.72 5.2518e-15
18116.1 5.0039e-15
18283.74 4.8787e-15
18495.44 4.7131e-15
18709.61 4.501e-15
18882.73 4.3884e-15
19101.39 4.3382e-15
19278.12 4.2103e-15
19501.36 4.0486e-15
19681.81 3.9202e-15
19909.7 3.8134e-15
20093.93 3.7524e-15
20279.84 3.6334e-15
20514.68 3.5918e-15
20704.5 3.51e-15
20896.07 3.438e-15
21089.42 3.3908e-15
21284.57 3.3213e-15
21481.5 3.2532e-15
21680.28 3.15e-15
21880.89 3.1068e-15
22083.34 3.0221e-15
22287.68 2.9465e-15
22493.89 2.8678e-15
22702.04 2.776e-15
22912.1 2.4846e-15
23124.09 2.4492e-15
23284.39 2.1456e-15
23499.83 2.0055e-15
23717.28 2.0176e-15
23881.67 1.8504e-15
24102.65 1.7774e-15
24325.65 1.7387e-15
24494.29 1.6126e-15
24720.94 1.5699e-15
24828.79 1.667e-15
24922.97 1.4616e-15
25017.15 1.4932e-15
25111.23 1.4373e-15
25205.4 1.4517e-15
25299.48 1.4256e-15
25393.66 1.4233e-15
25487.83 1.4087e-15
25581.91 1.3955e-15
25676.09 1.3955e-15
25770.17 1.3156e-15
25864.34 1.3073e-15
25958.52 1.3814e-15
26052.6 1.293e-15
26146.77 1.2887e-15
26240.95 1.2232e-15
26335.03 1.2582e-15
26429.2 1.1937e-15
26523.38 1.1591e-15
26617.46 1.0644e-15
26711.63 1.2233e-15
26805.71 1.1925e-15
26899.89 1.216e-15
26994.07 1.1847e-15
27088.14 1.2165e-15
27182.32 1.1692e-15
27276.5 1.122e-15
27370.57 1.1962e-15
27464.75 1.1456e-15
27558.83 1.1855e-15
27653.0 1.1743e-15
27747.18 1.166e-15
27841.26 1.1629e-15
27935.44 1.0854e-15
28029.61 1.0526e-15
28123.69 1.0343e-15
28217.87 1.0521e-15
28311.94 1.0003e-15
28406.12 1.0056e-15
28500.3 9.7442e-16
28594.37 9.9267e-16
28688.55 9.9962e-16
28782.73 9.6275e-16
28876.8 9.9187e-16
28970.98 9.6709e-16
29065.06 9.4785e-16
29159.24 9.1962e-16
29253.41 9.0311e-16
29347.49 8.8337e-16
29441.67 8.5793e-16
29535.84 8.7809e-16
29629.92 8.669e-16
29724.1 8.3529e-16
29818.18 8.1968e-16
29912.35 8.071e-16
30006.53 8.3485e-16
30100.61 8.4222e-16
30194.78 8.3402e-16
30288.96 8.3767e-16
30383.04 8.0421e-16
30477.21 8.0251e-16
30571.29 7.5381e-16
30665.47 7.8714e-16
30759.64 8.0774e-16
30853.72 7.4241e-16
30947.9 7.74e-16
31042.07 7.54e-16
31136.15 7.5629e-16
31230.33 7.2625e-16
31324.41 8.1603e-16
31418.58 8.0899e-16
31512.76 8.3308e-16
31606.84 8.3516e-16
31701.02 8.6709e-16
31795.19 9.2221e-16
31889.27 8.8253e-16
31983.45 8.9343e-16
32077.52 9.447e-16
32171.7 9.8196e-16
32265.87 1.0774e-15
32359.95 1.0977e-15
32454.13 1.1485e-15
32548.31 1.2854e-15
32642.38 1.2974e-15
32736.56 1.313e-15
32830.64 1.3251e-15
32924.82 1.2276e-15
33018.99 1.1227e-15
33113.07 9.8112e-16
33207.25 9.3338e-16
33301.42 9.0199e-16
33395.5 8.6738e-16
33489.68 8.7212e-16
33583.76 7.8597e-16
33677.93 8.3415e-16
33772.11 9.0031e-16
33866.19 9.2497e-16
33960.36 9.1784e-16
34054.54 9.0407e-16
34148.62 8.9176e-16
34242.79 8.4468e-16
34336.87 8.349e-16
34431.05 8.0115e-16
34525.22 8.0922e-16
34619.3 7.9323e-16
34713.48 7.9158e-16
34807.65 7.6571e-16
34901.73 7.7942e-16
34995.91 7.8975e-16
35089.99 7.3238e-16
35184.16 6.7265e-16
35278.34 7.3223e-16
35372.42 7.4228e-16
35466.6 7.6362e-16
35560.77 7.1641e-16
35654.85 6.8421e-16
35749.03 6.8452e-16
35843.1 6.5917e-16
35937.28 6.6598e-16
36031.46 6.8438e-16
36125.54 6.6114e-16
36219.71 6.517e-16
36313.89 6.1959e-16
36407.96 6.3048e-16
36502.14 6.4949e-16
36596.22 6.3435e-16
36690.39 6.1809e-16
36784.57 6.0873e-16
36878.65 6.4257e-16
36972.83 6.1063e-16
37067.0 5.9915e-16
37161.08 6.1566e-16
37255.26 5.9948e-16
37349.34 6.0913e-16
37443.51 6.0604e-16
37537.69 6.3333e-16
37631.77 6.2308e-16
37725.94 6.2593e-16
37820.12 5.6019e-16
37914.19 5.8312e-16
38008.37 5.6483e-16
38102.45 5.6569e-16
38196.63 5.7936e-16
38290.8 5.5777e-16
38384.88 5.4354e-16
38479.06 5.1633e-16
38573.23 5.3608e-16
38667.31 5.5018e-16
38761.49 5.4627e-16
38855.57 5.5863e-16
38949.74 5.4889e-16
39043.92 5.5267e-16
39138.0 5.6114e-16
39232.17 5.578e-16
39326.25 5.581e-16
39420.43 5.4523e-16
39514.61 5.7298e-16
39608.68 5.5347e-16
39702.86 5.7737e-16
39797.03 5.2996e-16
39891.11 5.6472e-16
39985.29 5.3431e-16
40079.37 5.0893e-16
40173.55 5.1145e-16
40267.72 6.203e-16
40361.8 6.3891e-16
40455.97 6.4164e-16
40550.15 5.4746e-16
40644.23 5.1982e-16
40738.4 5.0556e-16
40832.48 4.6538e-16
40926.66 4.7961e-16
41020.84 4.6675e-16
41114.92 4.8114e-16
41209.09 4.4991e-16
41303.27 4.2796e-16
41397.35 4.6009e-16
41491.52 4.7623e-16
41585.7 4.6124e-16
41679.78 4.418e-16
41773.95 4.5799e-16
41868.03 4.2472e-16
41962.21 4.2077e-16
42056.39 4.1249e-16
42150.46 4.1356e-16
42244.64 3.9352e-16
42338.71 3.9595e-16
42432.89 4.1315e-16
42527.07 3.6051e-16
42621.15 3.6498e-16
42715.32 3.4146e-16
42809.5 4.1144e-16
42903.58 3.9957e-16
42997.75 4.1722e-16
43091.83 3.9742e-16
43186.01 3.8564e-16
43280.18 4.0647e-16
43374.26 3.9432e-16
43468.44 4.012e-16
43562.62 3.9236e-16
43656.69 3.9697e-16
43750.87 3.851e-16
43844.95 3.7412e-16
43939.12 3.6224e-16
44033.3 3.4299e-16
44127.38 3.741e-16
44221.55 3.5893e-16
44315.73 3.5988e-16
44409.81 3.5771e-16
44503.99 3.4983e-16
44598.07 3.7415e-16
44692.24 3.744e-16
44786.41 3.6028e-16
44880.49 3.4173e-16
44974.67 3.4342e-16
45068.85 3.5638e-16
45162.93 3.3582e-16
45257.1 3.1763e-16
45351.18 2.9535e-16
45445.36 2.9507e-16
45539.53 3.081e-16
45633.61 3.2945e-16
45727.79 2.9784e-16
45821.96 3.0695e-16
45916.04 3.1852e-16
46010.22 3.3113e-16
46104.3 3.5954e-16
46198.47 3.723e-16
46292.65 3.3235e-16
46386.73 3.5706e-16
46480.9 3.5471e-16
46575.08 3.4345e-16
46669.16 3.4312e-16
46763.33 3.4417e-16
46857.41 3.1307e-16
46951.59 2.7819e-16
47045.77 3.3817e-16
47139.84 3.4097e-16
47234.02 3.1473e-16
47328.19 3.4353e-16
47422.27 2.9531e-16
47516.45 2.995e-16
47610.53 2.8932e-16
47704.7 3.297e-16
47798.88 3.2367e-16
47892.96 3.4017e-16
47987.13 3.4312e-16
48081.31 2.9144e-16
48644.62 3.0065e-16
49131.06 2.95e-16
49617.51 2.8997e-16
50103.95 2.8557e-16
50590.4 2.8177e-16
51076.85 2.7858e-16
51563.29 2.7598e-16
52049.74 2.7398e-16
52536.18 2.7257e-16
53022.63 2.7174e-16
53509.08 2.7151e-16
53995.52 2.7187e-16
54624.41 4.5678e-16
54925.87 1.9473e-16
55227.32 2.9169e-16
55528.78 4.6924e-16
55830.23 2.8369e-16
56131.68 4.8104e-16
56433.13 4.4018e-16
56734.59 2.935e-16
57036.05 3.0804e-16
57337.5 4.2253e-16
57638.96 1.5826e-16
57940.41 2.6139e-16
58241.87 3.757e-16
58543.32 1.5697e-16
58844.78 2.734e-16
59146.23 2.3327e-16
59447.68 2.1037e-16
59749.14 4.4978e-16
60050.59 6.2344e-16
60352.04 4.5482e-16
60653.5 5.0179e-16
60954.95 5.1916e-16
61256.4 7.5926e-16
61557.86 8.891e-16
61859.32 1.1236e-15
62160.78 1.2414e-15
62462.22 1.1557e-15
62763.67 8.6652e-16
63065.14 8.1274e-16
63366.58 6.5574e-16
63668.04 5.4975e-16
63969.5 5.9554e-16
64270.95 5.9063e-16
64572.4 4.2813e-16
64873.86 5.1038e-16
65175.31 4.2873e-16
65476.76 4.21e-16
65778.22 5.2394e-16
66079.67 5.2338e-16
66381.13 5.0862e-16
66682.59 3.7376e-16
66984.04 3.4582e-16
67285.5 3.8945e-16
67586.94 3.0279e-16
67888.4 4.6535e-16
68189.85 3.4262e-16
68491.31 4.7777e-16
68792.77 3.675e-16
69094.22 4.9547e-16
69395.67 3.3761e-16
69697.13 6.6542e-16
69998.58 8.0107e-16
70300.04 5.0615e-16
70601.49 5.1177e-16
70902.94 4.7218e-16
71204.41 6.0699e-16
71505.85 8.1298e-16
71807.3 6.7874e-16
72108.76 5.5487e-16
72410.22 6.4308e-16
72711.67 6.6267e-16
73013.12 7.1866e-16
73294.85 4.6015e-16
73314.58 7.0558e-16
73616.04 7.4907e-16
73898.95 6.8848e-16
73917.48 7.0668e-16
74503.06 8.9286e-16
75107.16 9.9393e-16
75711.28 1.3204e-15
76315.38 1.4899e-15
76919.5 1.2899e-15
77523.61 1.202e-15
78127.71 1.1925e-15
78731.83 1.1395e-15
79335.94 9.8147e-16
79940.04 8.4657e-16
80544.16 5.9613e-16
81148.26 6.2587e-16
81752.38 6.2915e-16
82356.49 4.9112e-16
82960.6 5.6836e-16
83564.71 5.9304e-16
84168.83 5.7305e-16
84772.93 6.2127e-16
85377.04 6.7842e-16
85981.15 6.3827e-16
86585.26 6.9241e-16
87189.36 5.5521e-16
87793.47 4.9082e-16
88397.58 4.2501e-16
89001.7 4.6606e-16
89605.81 3.543e-16
90209.92 3.5524e-16
90814.03 2.8791e-16
91418.14 2.6489e-16
92022.24 2.3705e-16
92626.35 2.5108e-16
93230.47 3.0016e-16
93834.57 2.7701e-16
94438.68 3.0981e-16
95042.8 3.2789e-16
95646.91 3.2534e-16
96251.02 3.539e-16
96855.13 2.9324e-16
97459.2 2.6175e-16
98063.36 2.5073e-16
98667.42 2.2639e-16
99271.6 2.5181e-16
99875.66 2.4249e-16
100479.82 2.4634e-16
101083.91 2.477e-16
101687.97 2.657e-16
102292.13 2.6623e-16
102896.2 2.9429e-16
103500.37 3.0403e-16
104104.44 3.2078e-16
104708.51 4.0019e-16
105312.67 4.1564e-16
105916.75 3.8697e-16
106520.91 3.6631e-16
107124.97 3.5584e-16
107729.14 3.6246e-16
108333.21 3.3209e-16
108937.28 3.6031e-16
109541.45 3.6225e-16
110145.52 3.6555e-16
110749.68 3.9866e-16
111353.75 5.4181e-16
111957.92 7.3926e-16
112561.98 8.0749e-16
113166.05 7.6604e-16
113770.22 6.3846e-16
114374.29 5.6601e-16
114978.45 5.1403e-16
115582.52 4.5892e-16
116186.69 4.2793e-16
116790.76 4.6429e-16
117394.82 4.4019e-16
117999.0 4.5847e-16
118603.07 4.5149e-16
119207.22 4.5353e-16
119811.29 4.686e-16
120415.37 4.6426e-16
121019.53 4.5712e-16
121623.6 5.044e-16
122227.77 4.8902e-16
122831.84 4.8637e-16
123436.0 4.7422e-16
124040.07 4.9236e-16
124644.14 5.1992e-16
125248.31 5.4738e-16
125852.38 5.3361e-16
126456.54 5.7442e-16
127060.61 6.1184e-16
127664.68 7.9357e-16
128268.84 9.4501e-16
128872.92 6.2249e-16
129477.08 4.8088e-16
130081.14 4.373e-16
130685.31 4.3709e-16
131289.38 4.3271e-16
131893.46 4.301e-16
132497.62 4.278e-16
133101.68 4.227e-16
133705.85 4.2741e-16
134309.93 4.4567e-16
134914.09 4.4191e-16
135518.15 4.5138e-16
136122.23 4.5269e-16
136726.39 4.2773e-16
137330.47 4.0753e-16
137934.62 4.1126e-16
138538.69 4.5651e-16
139142.86 4.0355e-16
139746.93 3.9926e-16
140350.99 3.8064e-16
140955.18 3.7718e-16
141474.99 3.9948e-16
142367.02 4.7247e-16
143259.17 5.2097e-16
144151.22 4.2298e-16
145043.25 3.9289e-16
145935.3 3.7796e-16
146827.45 3.6526e-16
147719.5 3.7794e-16
148611.53 3.8606e-16
149503.68 4.2187e-16
150395.73 3.396e-16
151287.76 3.6191e-16
152179.81 3.574e-16
153071.96 3.6527e-16
153964.01 3.6794e-16
154856.04 5.3704e-16
155748.19 7.0222e-16
156640.24 4.5658e-16
157532.27 3.8974e-16
158424.41 3.9978e-16
159316.47 3.812e-16
160208.5 3.8118e-16
161100.55 4.2522e-16
161992.71 3.9864e-16
162884.73 4.8377e-16
163776.78 4.7216e-16
164668.83 4.5799e-16
165560.97 4.7715e-16
166453.03 4.4726e-16
167345.08 4.6415e-16
168237.22 4.8068e-16
169129.25 4.7854e-16
170021.31 6.1235e-16
170913.45 5.8355e-16
171805.48 4.7291e-16
172697.53 4.6652e-16
173589.57 4.8121e-16
174481.71 4.4239e-16
175373.76 4.3936e-16
176265.8 4.4287e-16
177157.94 4.2362e-16
178049.99 4.448e-16
178942.03 4.4549e-16
179834.17 4.2509e-16
180726.22 3.9181e-16
181618.27 4.0535e-16
182510.31 4.0007e-16
183402.45 4.1764e-16
184294.5 3.9135e-16
185186.54 3.9904e-16
186078.7 4.7387e-16
186970.75 6.8396e-16
187862.77 5.7014e-16
188754.82 4.2726e-16
189646.98 4.511e-16
190539.01 4.3069e-16
191431.06 4.2456e-16
192323.2 3.955e-16
193215.24 3.4478e-16
194107.29 4.0488e-16
194999.34 4.0107e-16
195891.48 4.0587e-16
196783.52 4.0051e-16
197675.57 3.7651e-16
198567.71 4.846e-16
199980.35 4.1406e-16
201687.76 4.5149e-16
203396.16 4.5405e-16
205105.55 4.2426e-16
206815.79 4.5198e-16
208526.91 4.6433e-16
210239.0 4.2432e-16
211951.99 4.5306e-16
213665.92 4.6261e-16
215380.84 4.6882e-16
217096.63 4.2997e-16
218813.41 4.649e-16
220531.05 4.9424e-16
222249.65 4.7574e-16
223969.23 4.4607e-16
225689.7 4.6397e-16
227411.14 4.7072e-16
229133.56 4.983e-16
230856.84 4.8486e-16
232581.2 4.7039e-16
234306.34 4.9456e-16
236032.52 4.9711e-16
237759.71 5.0003e-16
239487.76 4.8438e-16
241216.77 5.0009e-16
242946.77 5.4843e-16
244677.64 5.4225e-16
246409.59 4.9767e-16
248142.41 5.01e-16
249876.31 5.0203e-16
251611.05 5.2307e-16
253346.81 5.1777e-16
255083.51 5.2976e-16
256821.19 5.7427e-16
258559.84 7.5493e-16
260299.49 6.6271e-16
262040.09 5.2775e-16
263781.66 5.3555e-16
265524.2 5.3628e-16
267267.71 5.3656e-16
269012.32 5.2825e-16
270757.78 5.3456e-16
272504.22 5.513e-16
274251.71 5.6971e-16
276000.21 5.3872e-16
277749.56 5.4752e-16
279499.98 5.4855e-16
281251.4 5.541e-16
283003.88 5.5883e-16
284757.31 5.5937e-16
286511.64 5.5603e-16
288267.11 5.6414e-16
290023.48 5.6327e-16
291780.89 5.6644e-16
293539.3 5.487e-16
295298.69 5.7984e-16
297059.14 5.7276e-16
298820.56 5.7181e-16
300582.95 5.662e-16
302346.41 5.7843e-16
304110.96 5.7731e-16
305876.46 5.6053e-16
307642.96 5.7066e-16
309410.4 5.8037e-16
311179.03 5.8339e-16
312948.53 5.8795e-16
314719.17 6.0714e-16
316490.71 5.6485e-16
318263.41 6.1881e-16
320037.12 5.8779e-16
321811.73 6.0006e-16
323587.48 5.9712e-16
325364.28 6.0031e-16
327142.12 6.5796e-16
328920.99 6.3344e-16
330700.87 6.5211e-16
332481.75 7.0538e-16
334263.72 7.9403e-16
336046.85 7.0343e-16
337830.83 6.5585e-16
339616.0 6.6823e-16
