# col1 col2
# An Atlas of Galaxy Spectral Energy Distributions from the Ultraviolet to the Mid-Infrared
# Brown et al. (2014)
# http://dx.doi.org/10.5072/03/529D3551F0117
# 
# Column 1 : Restframe Wavelength (Angstrom)
# Column 2 : Flux per unit wavelength (ergs/s/cm^2/Angstrom)
# Column 3 : Observed wavelength (Angstrom)
# Column 4 : Source (0 = model, 1 = Optical Spectrum, 2 = Akari, 3 = Spitzer IRS)
# 
100.04 1.8338e-22
101.9 2.7439e-22
104.03 3.7356e-22
105.96 5.1685e-22
107.94 7.2671e-22
109.94 1.1386e-21
114.07 1.965e-21
118.08 3.1649e-21
121.11 1.3285e-20
125.07 1.947e-20
127.1 2.2822e-20
127.99 2.514e-20
130.97 3.1143e-20
131.87 3.8226e-20
134.02 4.3688e-20
137.14 6.1427e-20
140.01 7.4193e-20
142.94 2.3354e-19
146.95 6.8291e-19
151.06 8.2104e-19
154.94 9.9166e-19
158.91 1.1977e-18
161.87 1.3657e-18
166.02 1.6457e-18
169.89 1.9247e-18
173.05 2.1745e-18
177.08 2.5198e-18
179.95 2.8078e-18
182.04 3.0225e-18
185.85 3.4623e-18
191.06 4.0772e-18
194.16 4.5223e-18
198.23 5.0976e-18
201.91 5.7592e-18
205.19 6.2858e-18
209.97 6.8923e-18
215.86 8.4598e-18
219.87 9.4051e-18
222.93 1.0008e-17
227.07 1.1127e-17
230.23 1.7716e-17
233.97 3.1649e-17
239.97 4.1818e-17
246.13 4.2595e-17
251.86 4.8346e-17
257.14 4.3287e-17
260.11 5.1211e-17
263.73 5.5894e-17
269.25 5.8663e-17
274.26 6.1286e-17
278.72 6.4027e-17
283.9 6.6736e-17
289.84 6.689e-17
295.91 7.1345e-17
300.72 7.3513e-17
307.72 7.8048e-17
317.81 8.5185e-17
328.22 9.044e-17
338.19 9.4921e-17
347.67 9.8938e-17
357.41 1.0289e-16
365.73 1.0724e-16
375.11 1.1025e-16
384.74 1.105e-16
394.6 1.1705e-16
404.73 1.2088e-16
414.15 1.2313e-16
421.85 1.2427e-16
429.7 1.2571e-16
440.72 1.2893e-16
450.99 1.2983e-16
460.43 1.3103e-16
470.07 1.3254e-16
479.91 1.3439e-16
489.96 1.3377e-16
500.22 1.3626e-16
506.01 1.3563e-16
511.87 1.404e-16
520.19 1.4105e-16
529.86 1.404e-16
539.71 1.3815e-16
549.75 1.3815e-16
559.97 1.4105e-16
570.38 1.4367e-16
579.65 1.4202e-16
590.42 1.4334e-16
600.02 1.404e-16
609.76 1.2687e-16
619.67 1.44e-16
629.74 1.4235e-16
639.97 1.4433e-16
650.37 1.4334e-16
657.9 1.417e-16
665.52 1.4433e-16
674.78 1.45e-16
685.74 1.4072e-16
695.28 1.4533e-16
704.96 1.3975e-16
716.41 1.4668e-16
726.38 1.4702e-16
734.79 1.4769e-16
745.01 1.4735e-16
755.37 1.4769e-16
764.12 1.3689e-16
774.75 1.4906e-16
785.53 1.46e-16
794.63 1.4975e-16
805.68 1.5183e-16
815.01 1.5288e-16
824.45 1.5537e-16
835.92 1.4235e-16
845.59 1.5609e-16
855.39 1.5609e-16
865.29 1.5935e-16
875.31 1.6232e-16
885.45 1.6457e-16
895.7 1.6686e-16
903.99 1.6648e-16
914.46 1.938e-16
925.04 4.6705e-16
935.76 8.2104e-16
944.41 1.3316e-15
955.35 1.7757e-15
964.19 1.9695e-15
975.35 5.4621e-16
984.38 1.661e-15
995.78 1.7553e-15
1004.99 2.4967e-15
1014.29 2.4738e-15
1026.04 1.2542e-15
1035.53 1.8766e-15
1045.11 3.3064e-15
1054.78 3.2611e-15
1064.54 2.6204e-15
1074.39 3.1e-15
1084.33 2.4909e-15
1094.37 3.2913e-15
1104.49 3.1868e-15
1114.71 3.0858e-15
1125.03 2.7756e-15
1135.44 3.5266e-15
1145.94 3.2536e-15
1153.88 3.4543e-15
1164.56 3.5429e-15
1175.34 2.4511e-15
1186.21 3.4703e-15
1194.43 2.5256e-15
1205.49 1.9291e-15
1213.84 1.4235e-15
1225.07 2.5725e-15
1236.41 3.7014e-15
1244.98 4.0305e-15
1253.61 3.8758e-15
1265.21 3.4305e-15
1273.98 4.3487e-15
1285.77 4.5642e-15
1294.68 3.6674e-15
1303.65 3.6506e-15
1315.72 4.5432e-15
1324.84 4.3789e-15
1334.02 3.9297e-15
1346.36 4.649e-15
1355.7 4.5223e-15
1365.09 4.0866e-15
1374.56 4.2792e-15
1384.08 4.3188e-15
1393.68 3.659e-15
1406.57 3.7615e-15
1416.32 4.0678e-15
1426.14 4.1626e-15
1436.03 4.1914e-15
1442.65 4.4092e-15
1445.98 4.5015e-15
1456.0 4.389e-15
1466.1 4.0678e-15
1476.26 4.096e-15
1486.49 4.2011e-15
1493.35 4.2891e-15
1503.7 4.0866e-15
1510.65 3.659e-15
1517.62 3.9027e-15
1524.62 3.8669e-15
1535.19 3.3835e-15
1545.83 3.6929e-15
1556.55 3.5104e-15
1563.73 3.6254e-15
1574.57 3.9936e-15
1585.49 4.2205e-15
1596.48 4.389e-15
1603.85 4.2792e-15
1614.96 4.2497e-15
1626.16 3.9936e-15
1633.66 4.3089e-15
1644.99 4.4912e-15
1656.39 4.0398e-15
1664.04 4.5537e-15
1671.72 3.8758e-15
1675.57 4.9701e-15
1683.3 5.1923e-15
1694.97 4.7573e-15
1706.72 4.6383e-15
1714.6 4.6064e-15
1726.48 4.617e-15
1734.45 5.0508e-15
1746.48 4.9358e-15
1754.54 5.412e-15
1766.7 4.7683e-15
1774.85 5.1093e-15
1783.05 5.1685e-15
1795.41 5.8259e-15
1803.69 5.6152e-15
1816.19 5.3501e-15
1824.58 5.3624e-15
1833.0 5.1093e-15
1845.71 4.617e-15
1854.23 4.9132e-15
1867.08 5.2524e-15
1875.7 5.4621e-15
1884.35 5.2043e-15
1893.05 5.2889e-15
1906.17 5.3624e-15
1914.97 5.3748e-15
1923.81 5.1804e-15
1937.15 4.7793e-15
1946.09 5.7459e-15
1955.07 5.5509e-15
1968.62 6.1996e-15
1977.71 6.1711e-15
1982.27 6.0864e-15
1996.01 5.9891e-15
2005.22 5.9205e-15
2014.48 5.8125e-15
2023.78 5.7327e-15
2033.12 5.9891e-15
2047.21 6.4027e-15
2056.66 6.0167e-15
2066.15 5.9479e-15
2075.69 6.7044e-15
2085.27 8.3054e-15
2094.9 7.7868e-15
2104.57 7.4707e-15
2114.28 7.8408e-15
2124.04 7.6623e-15
2133.84 6.8923e-15
2143.69 7.9134e-15
2153.59 8.1164e-15
2163.53 7.4535e-15
2173.51 7.5052e-15
2183.55 8.1915e-15
2193.63 8.4989e-15
2203.75 8.1915e-15
2213.92 7.0528e-15
2224.14 7.3007e-15
2234.41 8.7571e-15
2244.72 8.2673e-15
2255.08 7.1017e-15
2265.49 7.0691e-15
2275.95 7.6447e-15
2286.45 8.7976e-15
2297.01 7.7881e-15
2307.61 8.6206e-15
2312.93 7.7552e-15
2323.61 5.8439e-15
2334.33 6.1491e-15
2345.11 5.1041e-15
2355.93 7.2783e-15
2366.8 5.3228e-15
2377.73 6.1838e-15
2383.21 4.6699e-15
2394.21 5.3755e-15
2405.26 5.2545e-15
2416.36 5.7896e-15
2427.52 7.8843e-15
2433.11 7.795e-15
2444.35 8.8091e-15
2455.63 9.0792e-15
2466.96 8.3978e-15
2472.65 7.7307e-15
2484.06 6.5364e-15
2495.53 6.6597e-15
2507.05 9.1321e-15
2512.83 5.6446e-15
2518.62 5.1962e-15
2524.43 5.2571e-15
2536.08 6.4101e-15
2547.78 6.6678e-15
2553.66 9.4633e-15
2565.44 7.8553e-15
2577.29 9.2957e-15
2583.23 8.6366e-15
2595.15 8.0254e-15
2607.13 7.2709e-15
2613.14 6.7865e-15
2625.2 8.5265e-15
2637.32 1.1937e-14
2643.4 1.5522e-14
2655.6 1.9412e-14
2667.86 1.3434e-14
2674.01 1.5215e-14
2686.35 1.6649e-14
2692.54 1.3442e-14
2704.97 1.5761e-14
2717.46 1.2437e-14
2723.72 1.1214e-14
2736.29 1.3149e-14
2742.6 8.1463e-15
2755.26 1.0002e-14
2767.98 1.214e-14
2774.36 1.3191e-14
2787.16 9.0868e-15
2793.59 4.9144e-15
2806.48 5.7227e-15
2812.95 1.2209e-14
2825.94 1.678e-14
2832.45 1.6363e-14
2845.53 1.3868e-14
2852.09 9.8643e-15
2865.25 1.7506e-14
2871.86 2.0714e-14
2885.11 1.9072e-14
2891.76 2.1353e-14
2911.81 2.7648e-14
2931.99 2.4653e-14
2952.31 2.3555e-14
2972.78 2.5251e-14
2993.38 2.5615e-14
3007.2 2.6523e-14
3028.05 2.7405e-14
3049.04 2.8448e-14
3070.17 3.0217e-14
3091.45 3.0442e-14
3112.88 3.3242e-14
3127.25 3.1756e-14
3148.93 3.1845e-14
3170.75 3.414e-14
3192.73 3.0164e-14
3207.47 3.3468e-14
3229.7 2.8698e-14
3252.09 3.7677e-14
3267.1 4.2976e-14
3289.75 4.2214e-14
3312.55 4.1085e-14
3320.19 4.0903e-14
3327.84 4.3535e-14
3335.51 4.6764e-14
3343.2 4.2072e-14
3350.91 4.1789e-14
3358.63 4.6253e-14
3366.38 4.0015e-14
3374.14 3.3365e-14
3381.91 3.7616e-14
3389.71 4.5441e-14
3397.52 4.2907e-14
3405.35 4.6196e-14
3413.21 4.362e-14
3421.07 4.6964e-14
3428.96 4.4755e-14
3436.87 4.4149e-14
3444.79 3.2734e-14
3452.73 4.7324e-14
3460.69 4.2969e-14
3468.67 4.3275e-14
3476.66 4.1717e-14
3484.68 4.4096e-14
3492.71 4.1733e-14
3500.76 3.9405e-14
3508.83 4.7276e-14
3516.92 4.0712e-14
3525.03 4.3431e-14
3533.15 4.8404e-14
3541.3 5.1637e-14
3549.46 5.2124e-14
3557.64 4.722e-14
3565.84 5.1428e-14
3574.07 3.7956e-14
3582.3 3.8758e-14
3590.56 3.3608e-14
3598.84 4.8925e-14
3607.14 4.4834e-14
3615.45 4.5258e-14
3619.92 4.683e-14
3622.66 4.4671e-14
3625.4 4.8001e-14
3628.14 5.222e-14
3630.88 4.7772e-14
3633.61 4.1639e-14
3636.35 3.919e-14
3639.09 5.195e-14
3641.83 5.16e-14
3644.57 5.1336e-14
3647.31 4.8973e-14
3650.04 5.2246e-14
3652.78 5.2331e-14
3655.52 5.6557e-14
3658.26 6.1818e-14
3661.0 6.2366e-14
3663.74 5.994e-14
3666.47 6.0828e-14
3669.21 6.0591e-14
3671.95 5.731e-14
3674.69 5.0277e-14
3677.43 5.0275e-14
3680.17 5.4297e-14
3682.9 5.0669e-14
3685.64 5.1468e-14
3688.38 5.427e-14
3691.12 5.2552e-14
3693.86 5.6957e-14
3696.6 5.8423e-14
3699.33 5.4775e-14
3702.07 5.135e-14
3704.81 5.217e-14
3707.55 5.224e-14
3710.29 5.6954e-14
3713.03 5.9846e-14
3715.77 5.7487e-14
3718.5 5.4425e-14
3721.24 5.4814e-14
3723.98 5.8481e-14
3726.72 5.7935e-14
3729.46 5.9063e-14
3732.2 4.7435e-14
3734.93 4.6797e-14
3737.67 4.6539e-14
3740.41 4.9934e-14
3743.15 4.789e-14
3745.89 4.5001e-14
3748.63 4.3422e-14
3751.36 4.9124e-14
3754.1 5.6288e-14
3756.84 5.3401e-14
3759.58 5.3087e-14
3762.32 5.7143e-14
3765.06 5.3009e-14
3767.79 5.4734e-14
3770.53 5.5992e-14
3773.27 6.0552e-14
3776.01 6.6003e-14
3778.75 6.4339e-14
3781.49 6.603e-14
3784.22 6.4316e-14
3786.96 5.9239e-14
3789.7 5.8809e-14
3792.44 5.675e-14
3795.18 5.0834e-14
3797.92 5.1847e-14
3800.66 5.3801e-14
3803.39 5.6937e-14
3806.13 6.2932e-14
3808.87 6.3081e-14
3811.61 5.8491e-14
3814.35 5.7381e-14
3817.09 5.5753e-14
3819.82 5.0523e-14
3822.56 4.8423e-14
3825.3 4.1361e-14
3828.04 3.5689e-14
3830.78 3.6722e-14
3833.52 3.7833e-14
3836.25 4.4535e-14
3838.99 4.183e-14
3841.73 5.3825e-14
3844.47 5.4115e-14
3847.21 6.1138e-14
3849.95 5.8443e-14
3852.68 5.4569e-14
3855.42 5.346e-14
3858.16 5.4315e-14
3860.9 5.3424e-14
3863.64 5.4893e-14
3866.38 6.0908e-14
3869.11 5.8197e-14
3871.85 5.1953e-14
3874.59 5.7867e-14
3877.33 5.573e-14
3880.07 5.4257e-14
3882.81 5.334e-14
3885.55 4.964e-14
3888.28 5.4017e-14
3891.02 6.5432e-14
3893.76 6.2995e-14
3896.5 6.2415e-14
3899.24 6.6854e-14
3901.98 6.8269e-14
3904.71 6.7624e-14
3907.45 7.1328e-14
3910.19 7.382e-14
3912.93 7.3315e-14
3915.67 6.8105e-14
3918.41 6.2994e-14
3921.14 6.2102e-14
3923.88 5.3506e-14
3926.62 4.1757e-14
3929.36 3.6788e-14
3932.1 3.5838e-14
3934.84 3.7292e-14
3937.57 4.2226e-14
3940.31 5.1739e-14
3943.05 5.9614e-14
3945.79 6.4128e-14
3948.53 6.4359e-14
3951.27 7.1471e-14
3954.01 6.6129e-14
3956.74 6.4276e-14
3959.48 5.2513e-14
3962.22 4.674e-14
3964.96 3.8657e-14
3967.7 3.8094e-14
3970.44 4.4172e-14
3973.17 5.4595e-14
3975.91 6.6284e-14
3978.65 7.6332e-14
3981.39 7.7647e-14
3984.13 8.0413e-14
3986.87 8.4275e-14
3989.6 8.734e-14
3992.34 8.7613e-14
3995.08 8.6483e-14
3997.82 8.9629e-14
4000.56 8.856e-14
4003.3 8.8235e-14
4006.03 9.1606e-14
4008.77 9.1911e-14
4011.51 9.7126e-14
4014.25 9.6501e-14
4016.99 9.9416e-14
4019.73 9.692e-14
4022.46 9.8282e-14
4025.2 9.8914e-14
4027.94 9.4218e-14
4030.68 9.073e-14
4033.42 8.9326e-14
4036.16 9.4851e-14
4038.9 9.4777e-14
4041.63 9.1502e-14
4044.37 9.3147e-14
4047.11 9.0725e-14
4049.85 9.1724e-14
4052.59 9.2339e-14
4055.33 8.8736e-14
4058.06 8.813e-14
4060.8 8.6668e-14
4063.54 8.5524e-14
4066.28 8.913e-14
4069.02 9.0265e-14
4071.76 9.0473e-14
4074.49 8.8901e-14
4077.23 9.0775e-14
4079.97 9.467e-14
4082.71 9.5229e-14
4085.45 9.5546e-14
4088.19 9.7354e-14
4090.92 9.3842e-14
4093.66 8.8486e-14
4096.4 8.4345e-14
4099.14 8.0409e-14
4101.88 7.9946e-14
4104.62 8.1841e-14
4107.35 8.8529e-14
4110.09 9.0581e-14
4112.83 9.1538e-14
4115.57 9.3396e-14
4118.31 9.3706e-14
4121.05 9.3706e-14
4123.79 9.4546e-14
4126.52 9.5382e-14
4129.26 9.1751e-14
4132.0 9.1e-14
4134.74 9.4868e-14
4137.48 9.242e-14
4140.22 9.3154e-14
4142.95 9.2267e-14
4145.69 9.011e-14
4148.43 8.9637e-14
4151.17 9.0751e-14
4153.91 9.4552e-14
4156.65 9.7842e-14
4159.38 9.6946e-14
4162.12 9.3979e-14
4164.86 9.2508e-14
4167.6 9.2998e-14
4170.34 9.0637e-14
4173.08 8.6675e-14
4175.81 8.7644e-14
4178.55 9.1141e-14
4181.29 9.2754e-14
4184.03 9.4636e-14
4186.77 9.4949e-14
4189.51 9.3561e-14
4192.24 9.4259e-14
4194.98 9.5795e-14
4197.72 9.4634e-14
4200.46 9.5325e-14
4203.2 9.7704e-14
4205.94 9.7181e-14
4208.68 9.8235e-14
4211.41 1.0162e-13
4214.15 9.8207e-14
4216.89 9.8946e-14
4219.63 9.712e-14
4222.37 9.2718e-14
4225.11 9.0283e-14
4227.84 8.9824e-14
4230.58 9.3317e-14
4233.32 9.5614e-14
4236.06 9.9797e-14
4238.8 9.817e-14
4241.54 9.8145e-14
4244.27 1.0246e-13
4247.01 9.8963e-14
4249.75 9.598e-14
4252.49 9.7118e-14
4255.23 9.8507e-14
4257.97 9.4607e-14
4260.7 9.6739e-14
4263.44 1.0107e-13
4266.18 9.8026e-14
4268.92 9.606e-14
4271.66 9.448e-14
4274.4 9.3465e-14
4277.13 9.6857e-14
4279.87 9.9063e-14
4282.61 9.5446e-14
4285.35 9.0968e-14
4288.09 8.8941e-14
4290.83 8.9972e-14
4293.57 8.8644e-14
4296.3 8.1641e-14
4299.04 7.6316e-14
4301.78 7.6214e-14
4304.52 7.6523e-14
4307.26 7.5471e-14
4310.0 8.3934e-14
4312.73 9.3877e-14
4315.47 1.0476e-13
4318.21 1.0291e-13
4320.95 1.0021e-13
4323.69 9.7662e-14
4326.43 1.0224e-13
4329.16 1.0295e-13
4331.9 1.0139e-13
4334.64 9.9782e-14
4337.38 9.5134e-14
4340.12 9.5798e-14
4342.86 9.6221e-14
4345.59 1.0507e-13
4348.33 1.0472e-13
4351.07 1.0504e-13
4353.81 1.0672e-13
4356.55 1.0955e-13
4359.29 1.1069e-13
4362.03 1.1449e-13
4364.76 1.1478e-13
4367.5 1.1188e-13
4370.24 1.0683e-13
4372.98 1.0563e-13
4375.72 1.0384e-13
4378.46 1.0618e-13
4381.19 9.7179e-14
4383.93 9.4415e-14
4386.67 9.8446e-14
4389.41 1.0535e-13
4392.15 1.0663e-13
4394.89 1.0925e-13
4397.62 1.0748e-13
4400.36 1.0215e-13
4403.1 1.031e-13
4405.84 1.0901e-13
4408.58 1.0953e-13
4411.32 1.1027e-13
4414.05 1.1125e-13
4416.79 1.1317e-13
4419.53 1.1707e-13
4422.27 1.1769e-13
4425.01 1.1695e-13
4427.75 1.1208e-13
4430.48 1.1549e-13
4433.22 1.1619e-13
4435.96 1.1271e-13
4438.7 1.1511e-13
4441.44 1.1759e-13
4444.18 1.1934e-13
4446.92 1.2195e-13
4449.65 1.1765e-13
4452.39 1.1456e-13
4455.13 1.1165e-13
4457.87 1.0984e-13
4460.61 1.1219e-13
4463.35 1.1074e-13
4466.08 1.1485e-13
4468.82 1.225e-13
4471.56 1.2305e-13
4474.3 1.2277e-13
4477.04 1.2176e-13
4479.78 1.2135e-13
4482.51 1.2589e-13
4485.25 1.2652e-13
4487.99 1.2088e-13
4490.73 1.2215e-13
4493.47 1.2172e-13
4496.21 1.242e-13
4498.94 1.2464e-13
4501.68 1.3041e-13
4504.42 1.3605e-13
4507.16 1.347e-13
4509.9 1.2668e-13
4512.64 1.306e-13
4515.37 1.2966e-13
4518.11 1.2822e-13
4520.85 1.2142e-13
4523.59 1.2375e-13
4526.33 1.2067e-13
4529.07 1.1738e-13
4531.81 1.1627e-13
4534.54 1.2075e-13
4537.28 1.2267e-13
4540.02 1.2383e-13
4542.76 1.2173e-13
4545.5 1.1877e-13
4548.24 1.1964e-13
4550.97 1.2765e-13
4553.71 1.268e-13
4556.45 1.314e-13
4559.19 1.3256e-13
4561.93 1.3068e-13
4564.67 1.3094e-13
4567.4 1.2953e-13
4570.14 1.338e-13
4572.88 1.3165e-13
4575.62 1.2998e-13
4578.36 1.2935e-13
4581.1 1.2519e-13
4583.83 1.2811e-13
4586.57 1.2938e-13
4589.31 1.3106e-13
4592.05 1.3035e-13
4594.79 1.2694e-13
4597.53 1.2619e-13
4600.26 1.313e-13
4603.0 1.3156e-13
4605.74 1.3163e-13
4608.48 1.3403e-13
4611.22 1.3454e-13
4613.96 1.381e-13
4616.7 1.3911e-13
4619.43 1.3695e-13
4622.17 1.3707e-13
4624.91 1.3634e-13
4627.65 1.3277e-13
4630.39 1.3393e-13
4633.13 1.3136e-13
4635.86 1.2778e-13
4638.6 1.2618e-13
4641.34 1.2488e-13
4644.08 1.2655e-13
4646.82 1.2585e-13
4649.56 1.2418e-13
4652.29 1.2903e-13
4655.03 1.3092e-13
4657.77 1.3124e-13
4660.51 1.2827e-13
4663.25 1.2464e-13
4665.99 1.2376e-13
4668.72 1.2724e-13
4671.46 1.279e-13
4674.2 1.3064e-13
4676.94 1.2884e-13
4679.68 1.2742e-13
4682.42 1.2727e-13
4685.15 1.2947e-13
4687.89 1.2766e-13
4690.63 1.2797e-13
4693.37 1.3027e-13
4696.11 1.2857e-13
4698.85 1.2789e-13
4701.59 1.2668e-13
4704.32 1.2501e-13
4707.06 1.2332e-13
4709.8 1.239e-13
4712.54 1.2921e-13
4715.28 1.3054e-13
4718.02 1.3303e-13
4720.75 1.327e-13
4723.49 1.318e-13
4726.23 1.2905e-13
4728.97 1.2839e-13
4731.71 1.2687e-13
4734.45 1.2879e-13
4737.18 1.2936e-13
4739.92 1.3478e-13
4742.66 1.3451e-13
4745.4 1.3232e-13
4748.14 1.3397e-13
4750.88 1.3692e-13
4753.61 1.3259e-13
4756.35 1.3114e-13
4759.09 1.3259e-13
4761.83 1.3016e-13
4764.57 1.3088e-13
4767.31 1.3351e-13
4770.05 1.3336e-13
4772.78 1.3803e-13
4775.52 1.4066e-13
4778.26 1.3471e-13
4781.0 1.3519e-13
4783.74 1.3778e-13
4786.48 1.3357e-13
4789.21 1.3252e-13
4791.95 1.3709e-13
4794.69 1.4008e-13
4797.43 1.4001e-13
4800.17 1.4396e-13
4802.91 1.4246e-13
4805.64 1.3941e-13
4808.38 1.3868e-13
4811.12 1.3813e-13
4813.86 1.4004e-13
4816.6 1.4033e-13
4819.34 1.4002e-13
4822.07 1.354e-13
4824.81 1.3656e-13
4827.55 1.3849e-13
4830.29 1.3713e-13
4833.03 1.3541e-13
4835.77 1.3797e-13
4838.5 1.3667e-13
4841.24 1.3516e-13
4843.98 1.3717e-13
4846.72 1.3408e-13
4849.46 1.3241e-13
4852.2 1.2634e-13
4854.94 1.2143e-13
4857.67 1.183e-13
4860.41 1.1675e-13
4863.15 1.1669e-13
4865.89 1.1797e-13
4868.63 1.2027e-13
4871.37 1.2587e-13
4874.1 1.2653e-13
4876.84 1.2787e-13
4879.58 1.294e-13
4882.32 1.2903e-13
4885.06 1.2598e-13
4887.8 1.2779e-13
4890.53 1.3298e-13
4893.27 1.3384e-13
4896.01 1.3819e-13
4898.75 1.3813e-13
4901.49 1.3935e-13
4904.23 1.3577e-13
4906.96 1.3257e-13
4909.7 1.3623e-13
4912.44 1.3384e-13
4915.18 1.3069e-13
4917.92 1.2641e-13
4920.66 1.2375e-13
4923.39 1.322e-13
4926.13 1.3882e-13
4928.87 1.4132e-13
4931.61 1.3547e-13
4934.35 1.3143e-13
4937.09 1.3255e-13
4939.83 1.3476e-13
4942.56 1.3962e-13
4945.3 1.4528e-13
4948.04 1.4335e-13
4950.78 1.3754e-13
4953.52 1.3531e-13
4956.26 1.3578e-13
4958.99 1.3773e-13
4961.73 1.3999e-13
4964.47 1.403e-13
4967.21 1.3763e-13
4969.95 1.3442e-13
4972.69 1.3567e-13
4975.42 1.349e-13
4978.16 1.3156e-13
4980.9 1.2935e-13
4983.64 1.258e-13
4986.38 1.2986e-13
4989.12 1.3458e-13
4991.85 1.3689e-13
4994.59 1.3309e-13
4997.33 1.3055e-13
5000.07 1.2896e-13
5002.81 1.2966e-13
5005.55 1.3343e-13
5008.28 1.3399e-13
5011.02 1.2891e-13
5013.76 1.2233e-13
5016.5 1.2511e-13
5019.24 1.2525e-13
5021.98 1.2543e-13
5024.72 1.2884e-13
5027.45 1.3566e-13
5030.19 1.3485e-13
5032.93 1.3871e-13
5035.67 1.3544e-13
5038.41 1.3269e-13
5041.15 1.3076e-13
5043.88 1.3173e-13
5046.62 1.3317e-13
5049.36 1.3704e-13
5052.1 1.3606e-13
5054.84 1.3643e-13
5057.58 1.3871e-13
5060.31 1.3816e-13
5063.05 1.3651e-13
5065.79 1.3346e-13
5068.53 1.3059e-13
5071.27 1.3166e-13
5074.01 1.3277e-13
5076.74 1.2618e-13
5079.48 1.249e-13
5082.22 1.2861e-13
5084.96 1.3325e-13
5087.7 1.3088e-13
5090.44 1.3022e-13
5093.17 1.3077e-13
5095.91 1.2763e-13
5098.65 1.2934e-13
5101.39 1.3291e-13
5104.13 1.3231e-13
5106.87 1.3202e-13
5109.61 1.3346e-13
5112.34 1.3332e-13
5115.08 1.3816e-13
5117.82 1.3631e-13
5120.56 1.2947e-13
5123.3 1.2829e-13
5126.04 1.263e-13
5128.77 1.3108e-13
5131.51 1.2853e-13
5134.25 1.2771e-13
5136.99 1.2626e-13
5139.73 1.2698e-13
5142.47 1.2604e-13
5145.2 1.2512e-13
5147.94 1.2446e-13
5150.68 1.2446e-13
5153.42 1.2711e-13
5156.16 1.2899e-13
5158.9 1.2691e-13
5161.63 1.1842e-13
5164.37 1.1195e-13
5167.11 1.0922e-13
5169.85 1.0626e-13
5172.59 1.0673e-13
5175.33 1.115e-13
5178.07 1.1552e-13
5180.8 1.1335e-13
5183.54 1.1491e-13
5186.28 1.2278e-13
5189.02 1.2362e-13
5191.76 1.2377e-13
5194.5 1.2891e-13
5197.23 1.3043e-13
5199.97 1.298e-13
5202.71 1.2598e-13
5205.45 1.2661e-13
5208.19 1.2625e-13
5210.93 1.3303e-13
5213.66 1.3343e-13
5216.4 1.3343e-13
5219.14 1.3403e-13
5221.88 1.3068e-13
5224.62 1.2883e-13
5227.36 1.3089e-13
5230.09 1.3187e-13
5232.83 1.3524e-13
5235.57 1.396e-13
5238.31 1.3573e-13
5241.05 1.3767e-13
5243.79 1.3984e-13
5246.52 1.3849e-13
5249.26 1.3701e-13
5252.0 1.3607e-13
5254.74 1.3437e-13
5257.48 1.3614e-13
5260.22 1.3051e-13
5262.96 1.2461e-13
5265.69 1.2317e-13
5268.43 1.2367e-13
5271.17 1.2995e-13
5273.91 1.3516e-13
5276.65 1.3658e-13
5279.39 1.389e-13
5282.12 1.4082e-13
5284.86 1.4787e-13
5287.6 1.4788e-13
5290.34 1.4978e-13
5293.08 1.4637e-13
5295.82 1.4326e-13
5298.55 1.4281e-13
5301.29 1.4376e-13
5304.03 1.4909e-13
5306.77 1.5232e-13
5309.51 1.5292e-13
5312.25 1.5136e-13
5314.98 1.46e-13
5317.72 1.4358e-13
5320.46 1.4122e-13
5323.2 1.3682e-13
5325.94 1.3799e-13
5328.68 1.4042e-13
5331.41 1.4152e-13
5334.15 1.4601e-13
5336.89 1.4662e-13
5339.63 1.4315e-13
5342.37 1.4393e-13
5345.11 1.4508e-13
5347.85 1.4481e-13
5350.58 1.5087e-13
5353.32 1.5422e-13
5356.06 1.5492e-13
5358.8 1.5438e-13
5361.54 1.5091e-13
5364.28 1.5108e-13
5367.01 1.5534e-13
5369.75 1.5086e-13
5372.49 1.4851e-13
5375.23 1.5017e-13
5377.97 1.4838e-13
5380.71 1.4683e-13
5383.44 1.47e-13
5386.18 1.4459e-13
5388.92 1.4232e-13
5391.66 1.4126e-13
5394.4 1.4202e-13
5397.14 1.4225e-13
5399.87 1.4215e-13
5402.61 1.4144e-13
5405.35 1.3828e-13
5408.09 1.3914e-13
5410.83 1.4079e-13
5413.57 1.4262e-13
5416.3 1.4881e-13
5419.04 1.4724e-13
5421.78 1.454e-13
5424.52 1.4713e-13
5427.26 1.4663e-13
5430.0 1.4438e-13
5432.74 1.4434e-13
5435.47 1.479e-13
5438.21 1.5151e-13
5440.95 1.4951e-13
5443.69 1.4072e-13
5446.43 1.4122e-13
5449.17 1.4364e-13
5451.9 1.4265e-13
5454.64 1.4662e-13
5457.38 1.4542e-13
5460.12 1.453e-13
5462.86 1.4855e-13
5465.6 1.4644e-13
5468.33 1.4415e-13
5471.07 1.4481e-13
5473.81 1.4288e-13
5476.55 1.4094e-13
5479.29 1.4277e-13
5482.03 1.4024e-13
5484.76 1.4185e-13
5487.5 1.4834e-13
5490.24 1.4991e-13
5492.98 1.4727e-13
5495.72 1.4424e-13
5498.46 1.4245e-13
5501.19 1.42e-13
5503.93 1.414e-13
5506.67 1.4342e-13
5509.41 1.4372e-13
5512.15 1.4581e-13
5514.89 1.4817e-13
5517.63 1.4753e-13
5520.36 1.4878e-13
5523.1 1.4688e-13
5525.84 1.4507e-13
5528.58 1.4279e-13
5531.32 1.4191e-13
5534.06 1.4729e-13
5536.79 1.4921e-13
5539.53 1.4995e-13
5542.27 1.4715e-13
5545.01 1.5138e-13
5547.75 1.5268e-13
5550.49 1.5245e-13
5553.22 1.5001e-13
5555.96 1.4955e-13
5558.7 1.4906e-13
5561.44 1.4985e-13
5564.18 1.4576e-13
5566.92 1.4657e-13
5569.65 1.408e-13
5572.39 1.4587e-13
5575.13 1.4712e-13
5577.87 1.4383e-13
5580.61 1.4698e-13
5583.35 1.4024e-13
5586.09 1.4277e-13
5588.82 1.4324e-13
5591.56 1.4358e-13
5594.3 1.4371e-13
5597.04 1.4656e-13
5599.78 1.4465e-13
5602.52 1.4844e-13
5605.25 1.5196e-13
5607.99 1.5243e-13
5610.73 1.4934e-13
5613.47 1.5104e-13
5616.21 1.4614e-13
5618.95 1.4398e-13
5621.68 1.4548e-13
5624.42 1.4462e-13
5627.16 1.442e-13
5629.9 1.4968e-13
5632.64 1.458e-13
5635.38 1.4711e-13
5638.11 1.4428e-13
5640.85 1.4906e-13
5643.59 1.5217e-13
5646.33 1.4952e-13
5649.07 1.4986e-13
5651.81 1.4986e-13
5654.54 1.4604e-13
5657.28 1.4892e-13
5660.02 1.4681e-13
5662.76 1.4737e-13
5665.5 1.4814e-13
5668.24 1.4942e-13
5670.98 1.5207e-13
5673.71 1.5326e-13
5676.45 1.5042e-13
5679.19 1.4595e-13
5681.93 1.4761e-13
5684.67 1.4758e-13
5687.41 1.5126e-13
5690.14 1.5257e-13
5692.88 1.483e-13
5695.62 1.5264e-13
5698.36 1.4829e-13
5701.1 1.4337e-13
5703.84 1.4414e-13
5706.57 1.4505e-13
5709.31 1.4665e-13
5712.05 1.4686e-13
5714.79 1.4812e-13
5717.53 1.5179e-13
5720.27 1.5637e-13
5723.0 1.5481e-13
5725.74 1.5555e-13
5728.48 1.5743e-13
5731.22 1.5974e-13
5733.96 1.5536e-13
5736.7 1.6133e-13
5739.43 1.542e-13
5742.17 1.5644e-13
5744.91 1.549e-13
5747.65 1.4988e-13
5750.39 1.5683e-13
5753.13 1.5165e-13
5755.87 1.5159e-13
5758.6 1.507e-13
5761.34 1.5109e-13
5764.08 1.5188e-13
5766.82 1.5593e-13
5769.56 1.5411e-13
5772.3 1.5154e-13
5775.03 1.4579e-13
5777.77 1.4856e-13
5780.51 1.438e-13
5783.25 1.4769e-13
5785.99 1.4935e-13
5788.73 1.4985e-13
5791.46 1.5403e-13
5794.2 1.614e-13
5796.94 1.6207e-13
5799.68 1.5455e-13
5802.42 1.551e-13
5805.16 1.552e-13
5807.89 1.5515e-13
5810.63 1.5638e-13
5813.37 1.5771e-13
5816.11 1.5838e-13
5818.85 1.5986e-13
5821.59 1.5652e-13
5824.32 1.6215e-13
5827.06 1.5923e-13
5829.8 1.606e-13
5832.54 1.5663e-13
5835.28 1.5738e-13
5838.02 1.579e-13
5840.76 1.6051e-13
5843.49 1.5716e-13
5846.23 1.5714e-13
5848.97 1.5413e-13
5851.71 1.4898e-13
5854.45 1.5156e-13
5857.19 1.4863e-13
5859.92 1.5056e-13
5862.66 1.5355e-13
5865.4 1.5246e-13
5868.14 1.4112e-13
5870.88 1.5257e-13
5873.62 1.4796e-13
5876.35 1.5097e-13
5879.09 1.4752e-13
5881.83 1.4112e-13
5884.57 1.3382e-13
5887.31 1.2827e-13
5890.05 1.2112e-13
5892.78 1.2094e-13
5895.52 1.2495e-13
5898.26 1.3739e-13
5901.0 1.3872e-13
5903.74 1.4642e-13
5906.48 1.4885e-13
5909.21 1.5134e-13
5911.95 1.4761e-13
5914.69 1.5311e-13
5917.43 1.5324e-13
5920.17 1.5562e-13
5922.91 1.5475e-13
5925.65 1.5124e-13
5928.38 1.5223e-13
5931.12 1.4937e-13
5933.86 1.5233e-13
5936.6 1.5275e-13
5939.34 1.5604e-13
5942.08 1.5633e-13
5944.81 1.5253e-13
5947.55 1.5296e-13
5950.29 1.5677e-13
5953.03 1.5262e-13
5955.77 1.5266e-13
5958.51 1.5334e-13
5961.24 1.5475e-13
5963.98 1.5648e-13
5966.72 1.548e-13
5969.46 1.5402e-13
5972.2 1.511e-13
5974.94 1.5338e-13
5977.67 1.5554e-13
5980.41 1.5194e-13
5983.15 1.5081e-13
5985.89 1.551e-13
5988.63 1.547e-13
5991.37 1.57e-13
5994.11 1.5644e-13
5996.84 1.5262e-13
5999.58 1.5477e-13
6002.32 1.5199e-13
6005.06 1.477e-13
6007.8 1.4809e-13
6010.54 1.5145e-13
6013.27 1.5039e-13
6016.01 1.4982e-13
6018.75 1.4962e-13
6021.49 1.5132e-13
6024.23 1.5235e-13
6026.97 1.542e-13
6029.7 1.5644e-13
6032.44 1.5618e-13
6035.18 1.5455e-13
6037.92 1.5763e-13
6040.66 1.5626e-13
6043.4 1.5254e-13
6046.13 1.5652e-13
6048.87 1.5641e-13
6051.61 1.5976e-13
6054.35 1.6164e-13
6057.09 1.5778e-13
6059.83 1.5602e-13
6062.56 1.5554e-13
6065.3 1.5716e-13
6068.04 1.63e-13
6070.78 1.6293e-13
6073.52 1.579e-13
6076.26 1.5774e-13
6079.0 1.5694e-13
6081.73 1.5315e-13
6084.47 1.5171e-13
6087.21 1.5023e-13
6089.95 1.5417e-13
6092.69 1.5397e-13
6095.43 1.5313e-13
6098.16 1.5614e-13
6100.9 1.5516e-13
6103.64 1.5305e-13
6106.38 1.5428e-13
6109.12 1.5189e-13
6111.86 1.5583e-13
6114.59 1.541e-13
6117.33 1.5464e-13
6120.07 1.5338e-13
6122.81 1.506e-13
6125.55 1.526e-13
6128.29 1.5389e-13
6131.02 1.5621e-13
6133.76 1.5044e-13
6136.5 1.5345e-13
6139.24 1.533e-13
6141.98 1.5557e-13
6144.72 1.5179e-13
6147.45 1.5288e-13
6150.19 1.4943e-13
6152.93 1.5236e-13
6155.67 1.4826e-13
6158.41 1.4401e-13
6161.15 1.4499e-13
6163.89 1.3639e-13
6166.62 1.4416e-13
6169.36 1.4562e-13
6172.1 1.4902e-13
6174.84 1.4325e-13
6177.58 1.4995e-13
6180.32 1.4438e-13
6183.05 1.492e-13
6185.79 1.4143e-13
6188.53 1.4825e-13
6191.27 1.4196e-13
6194.01 1.4936e-13
6196.75 1.4546e-13
6199.48 1.5099e-13
6202.22 1.4763e-13
6204.96 1.529e-13
6207.7 1.4619e-13
6210.44 1.4893e-13
6213.18 1.4483e-13
6215.91 1.4507e-13
6218.65 1.4261e-13
6221.39 1.4781e-13
6224.13 1.4674e-13
6226.87 1.4639e-13
6229.61 1.463e-13
6232.34 1.4633e-13
6235.08 1.4574e-13
6237.82 1.4724e-13
6240.56 1.4663e-13
6243.3 1.422e-13
6246.04 1.4273e-13
6248.78 1.4538e-13
6251.51 1.4563e-13
6254.25 1.4331e-13
6256.99 1.4402e-13
6259.73 1.4494e-13
6262.47 1.4926e-13
6265.21 1.4895e-13
6267.94 1.4781e-13
6270.68 1.4558e-13
6273.42 1.4635e-13
6276.16 1.4722e-13
6278.9 1.4389e-13
6281.64 1.4552e-13
6284.37 1.461e-13
6287.11 1.5569e-13
6289.85 1.5066e-13
6292.59 1.4976e-13
6295.33 1.4961e-13
6298.07 1.5088e-13
6300.8 1.5291e-13
6303.54 1.5155e-13
6306.28 1.4842e-13
6309.02 1.4878e-13
6311.76 1.4692e-13
6314.5 1.4879e-13
6317.23 1.4578e-13
6319.97 1.4905e-13
6322.71 1.5068e-13
6325.45 1.5439e-13
6328.19 1.4934e-13
6330.93 1.488e-13
6333.67 1.5337e-13
6336.4 1.5502e-13
6339.14 1.5178e-13
6341.88 1.5102e-13
6344.62 1.5333e-13
6347.36 1.4866e-13
6350.1 1.4816e-13
6352.83 1.4966e-13
6355.57 1.5314e-13
6358.31 1.4432e-13
6361.05 1.5037e-13
6363.79 1.4892e-13
6366.53 1.4978e-13
6369.26 1.4861e-13
6372.0 1.5316e-13
6374.74 1.5699e-13
6377.48 1.5488e-13
6380.22 1.5346e-13
6382.96 1.5475e-13
6385.69 1.5669e-13
6388.43 1.516e-13
6391.17 1.5297e-13
6393.91 1.5373e-13
6396.65 1.5311e-13
6399.39 1.5353e-13
6402.13 1.542e-13
6404.86 1.5444e-13
6407.6 1.5285e-13
6410.34 1.5922e-13
6413.08 1.5632e-13
6415.82 1.5103e-13
6418.56 1.5102e-13
6421.29 1.5572e-13
6424.03 1.5622e-13
6426.77 1.5915e-13
6429.51 1.569e-13
6432.25 1.5416e-13
6434.99 1.5356e-13
6437.72 1.518e-13
6440.46 1.5518e-13
6443.2 1.5198e-13
6445.94 1.5139e-13
6448.68 1.5303e-13
6451.42 1.481e-13
6454.15 1.5035e-13
6456.89 1.5484e-13
6459.63 1.5414e-13
6462.37 1.5798e-13
6465.11 1.5785e-13
6467.85 1.5784e-13
6470.58 1.6002e-13
6473.32 1.563e-13
6476.06 1.5686e-13
6478.8 1.5674e-13
6481.54 1.562e-13
6484.28 1.542e-13
6487.02 1.5093e-13
6489.75 1.5059e-13
6492.49 1.4981e-13
6495.23 1.4846e-13
6497.97 1.4909e-13
6500.71 1.5059e-13
6503.45 1.5536e-13
6506.18 1.6036e-13
6508.92 1.5742e-13
6511.66 1.557e-13
6514.4 1.5899e-13
6517.14 1.5661e-13
6519.88 1.5595e-13
6522.61 1.5675e-13
6525.35 1.5312e-13
6528.09 1.534e-13
6530.83 1.5972e-13
6533.57 1.5938e-13
6536.31 1.5777e-13
6539.04 1.5703e-13
6541.78 1.601e-13
6544.52 1.6271e-13
6547.26 1.6164e-13
6550.0 1.5781e-13
6552.74 1.5192e-13
6555.47 1.5199e-13
6558.21 1.4862e-13
6560.95 1.4903e-13
6563.69 1.4912e-13
6566.43 1.4874e-13
6569.17 1.4661e-13
6571.91 1.5333e-13
6574.64 1.5665e-13
6577.38 1.5953e-13
6580.12 1.6951e-13
6582.86 1.7251e-13
6585.6 1.6628e-13
6588.34 1.6524e-13
6591.07 1.5609e-13
6593.81 1.4674e-13
6596.55 1.4897e-13
6599.29 1.5985e-13
6602.03 1.5529e-13
6604.77 1.5671e-13
6607.5 1.5118e-13
6610.24 1.5394e-13
6612.98 1.5382e-13
6615.72 1.6128e-13
6618.46 1.567e-13
6621.2 1.5642e-13
6623.93 1.5272e-13
6626.67 1.5365e-13
6629.41 1.5054e-13
6632.15 1.5454e-13
6634.89 1.54e-13
6637.63 1.5795e-13
6640.36 1.5323e-13
6643.1 1.5675e-13
6645.84 1.5411e-13
6648.58 1.5782e-13
6651.32 1.5452e-13
6654.06 1.5671e-13
6656.8 1.5016e-13
6659.53 1.5725e-13
6662.27 1.5054e-13
6665.01 1.4859e-13
6667.75 1.5204e-13
6670.49 1.5413e-13
6673.23 1.5353e-13
6675.96 1.5391e-13
6678.7 1.527e-13
6681.44 1.5078e-13
6684.18 1.5134e-13
6686.92 1.5243e-13
6689.66 1.541e-13
6692.39 1.5384e-13
6695.13 1.5233e-13
6697.87 1.5032e-13
6700.61 1.4832e-13
6703.35 1.4808e-13
6706.09 1.5172e-13
6708.82 1.5256e-13
6711.56 1.5248e-13
6714.3 1.5239e-13
6717.04 1.5184e-13
6719.78 1.5104e-13
6722.52 1.5253e-13
6725.25 1.5603e-13
6727.99 1.5882e-13
6730.73 1.5559e-13
6733.47 1.5339e-13
6736.21 1.5251e-13
6738.95 1.5022e-13
6741.69 1.4605e-13
6744.42 1.4797e-13
6747.16 1.4872e-13
6749.9 1.4679e-13
6752.64 1.4558e-13
6755.38 1.5084e-13
6758.12 1.5098e-13
6760.85 1.4826e-13
6763.59 1.4607e-13
6766.33 1.5158e-13
6769.07 1.4848e-13
6771.81 1.4849e-13
6774.55 1.4877e-13
6777.28 1.5546e-13
6780.02 1.4835e-13
6782.76 1.4696e-13
6785.5 1.4738e-13
6788.24 1.4964e-13
6790.98 1.481e-13
6793.71 1.4943e-13
6796.45 1.5178e-13
6799.19 1.525e-13
6810.24 1.5097e-13
6825.94 1.5096e-13
6841.67 1.5305e-13
6857.45 1.5128e-13
6873.26 1.4748e-13
6889.1 1.4713e-13
6904.98 1.4917e-13
6920.9 1.5053e-13
6936.85 1.5191e-13
6952.85 1.5401e-13
6968.87 1.54e-13
6984.94 1.4371e-13
7001.04 1.5432e-13
7017.18 1.5325e-13
7033.35 1.5113e-13
7049.57 1.6081e-13
7065.82 1.4869e-13
7082.11 1.5109e-13
7098.43 1.4197e-13
7114.8 1.4426e-13
7131.2 1.4458e-13
7147.64 1.4226e-13
7164.12 1.4489e-13
7180.63 1.4289e-13
7197.18 1.355e-13
7213.77 1.3487e-13
7230.4 1.4417e-13
7247.07 1.4482e-13
7263.78 1.5093e-13
7280.52 1.4546e-13
7297.31 1.3954e-13
7314.13 1.4848e-13
7330.99 1.5088e-13
7347.89 1.5907e-13
7364.83 1.505e-13
7381.8 1.5685e-13
7398.82 1.5469e-13
7415.88 1.5396e-13
7432.97 1.5899e-13
7450.11 1.5571e-13
7467.28 1.575e-13
7484.49 1.5858e-13
7501.75 1.5108e-13
7519.04 1.553e-13
7536.37 1.6148e-13
7553.75 1.5961e-13
7571.16 1.5887e-13
7588.61 1.5958e-13
7606.11 1.5415e-13
7623.64 1.5809e-13
7641.22 1.5376e-13
7658.83 1.5446e-13
7676.49 1.3359e-13
7694.18 1.4987e-13
7711.92 1.4746e-13
7729.7 1.5019e-13
7747.52 1.5052e-13
7765.38 1.4708e-13
7783.27 1.4673e-13
7801.22 1.4875e-13
7819.2 1.4839e-13
7837.23 1.477e-13
7855.3 1.5077e-13
7873.4 1.5215e-13
7891.55 1.4936e-13
7909.75 1.4764e-13
7927.98 1.4261e-13
7946.25 1.4161e-13
7964.57 1.449e-13
7982.93 1.4928e-13
8001.34 1.4621e-13
8019.78 1.4891e-13
8038.27 1.4993e-13
8056.8 1.4751e-13
8075.37 1.4921e-13
8093.99 1.4748e-13
8112.65 1.4952e-13
8131.35 1.5228e-13
8150.09 1.4744e-13
8168.88 1.4274e-13
8187.71 1.4273e-13
8206.58 1.4043e-13
8225.5 1.5255e-13
8244.46 1.501e-13
8263.47 1.487e-13
8282.52 1.4463e-13
8301.61 1.4562e-13
8320.75 1.4628e-13
8339.93 1.4326e-13
8359.16 1.4862e-13
8378.43 1.5137e-13
8397.74 1.3899e-13
8417.1 1.5029e-13
8436.5 1.4318e-13
8455.95 1.4088e-13
8475.45 1.3766e-13
8494.98 1.4546e-13
8514.56 1.4148e-13
8534.19 1.4049e-13
8553.87 1.1445e-13
8573.58 1.4439e-13
8593.35 1.4174e-13
8613.16 1.4205e-13
8633.01 1.4401e-13
8652.91 1.4334e-13
8672.86 9.1265e-14
8692.86 1.3844e-13
8712.89 1.4067e-13
8732.98 1.4695e-13
8753.11 1.4458e-13
8773.29 1.416e-13
8793.52 1.4588e-13
8813.79 1.3582e-13
8834.1 1.3643e-13
8854.47 1.4416e-13
8874.88 1.3299e-13
8895.34 1.3828e-13
8915.84 1.3986e-13
8936.4 1.3635e-13
8957.0 1.3231e-13
8977.64 1.3445e-13
8998.34 1.1844e-13
9019.09 1.2866e-13
9039.88 1.4073e-13
9060.72 1.46e-13
9081.6 1.3344e-13
9102.54 1.3748e-13
9123.52 1.4295e-13
9144.55 1.2739e-13
9165.63 1.2362e-13
9186.76 1.3033e-13
9207.94 1.3582e-13
9229.17 1.3394e-13
9250.44 1.3331e-13
9271.77 1.3577e-13
9293.14 1.3796e-13
9314.56 1.4019e-13
9336.03 1.4049e-13
9357.56 1.4015e-13
9379.13 1.379e-13
9400.75 1.4012e-13
9422.42 1.4107e-13
9444.14 1.3912e-13
9465.91 1.4234e-13
9487.74 1.4232e-13
9509.61 1.3939e-13
9531.53 1.4034e-13
9553.5 1.3681e-13
9575.52 1.3966e-13
9597.6 1.4191e-13
9619.72 1.4027e-13
9641.9 1.3864e-13
9664.12 1.3862e-13
9686.4 1.4054e-13
9708.73 1.3827e-13
9731.11 1.3698e-13
9753.54 1.3634e-13
9776.03 1.3727e-13
9798.57 1.3536e-13
9821.15 1.385e-13
9843.79 1.3816e-13
9866.49 1.3719e-13
9889.23 1.3718e-13
9912.02 1.3559e-13
9934.88 1.3682e-13
9957.78 1.3744e-13
9980.73 1.3742e-13
10026.8 1.3707e-13
10073.09 1.3515e-13
10119.58 1.3731e-13
10166.29 1.3601e-13
10236.76 1.369e-13
10284.01 1.3718e-13
10307.71 1.3653e-13
10499.35 1.3266e-13
10694.55 1.2716e-13
10893.38 1.237e-13
11095.9 1.184e-13
11302.18 1.1678e-13
11512.32 1.1651e-13
11699.38 1.136e-13
11889.47 1.0924e-13
12110.51 1.0774e-13
12307.29 1.065e-13
12507.27 1.036e-13
12710.49 1.0148e-13
12887.32 9.9394e-14
13096.72 9.758e-14
13309.52 9.4921e-14
13494.68 9.2974e-14
13713.95 9.1488e-14
13904.73 8.7976e-14
14098.16 8.421e-14
14294.29 8.3054e-14
14493.14 8.363e-14
14694.76 8.0791e-14
14899.19 8.1915e-14
15106.46 8.2482e-14
15316.6 8.3823e-14
15493.96 8.3054e-14
15709.5 8.1915e-14
15891.41 7.9134e-14
16112.49 7.9316e-14
16299.07 7.877e-14
16487.79 7.7868e-14
16717.16 7.7155e-14
16910.74 7.6096e-14
17106.56 7.4535e-14
17304.63 7.1674e-14
17505.01 6.94e-14
17707.71 6.643e-14
17912.76 6.388e-14
18120.19 6.0864e-14
18287.84 5.9205e-14
18499.61 5.7195e-14
18713.83 5.4621e-14
18886.97 5.301e-14
19105.68 5.2283e-14
19282.47 5.0508e-14
19505.73 4.8569e-14
19686.23 4.692e-14
19914.19 4.5432e-14
20098.44 4.4706e-14
20284.42 4.3188e-14
20519.3 4.2595e-14
20709.15 4.153e-14
20900.78 4.0585e-14
21094.18 3.9936e-14
21289.35 3.9027e-14
21486.35 3.8226e-14
21685.14 3.7014e-14
21885.8 3.6338e-14
22088.32 3.5266e-14
22292.69 3.4305e-14
22498.97 3.3524e-14
22707.13 3.2611e-14
22917.25 2.9199e-14
23076.09 2.8864e-14
23289.62 2.5256e-14
23505.13 2.3734e-14
23722.6 2.4064e-14
23887.05 2.2098e-14
24108.06 2.1348e-14
24275.19 2.1055e-14
24499.78 1.956e-14
24726.49 1.9203e-14
24897.87 1.6157e-14
25128.26 1.5935e-14
25302.46 1.6046e-14
25477.83 1.5935e-14
25713.59 1.6232e-14
25891.81 1.5899e-14
26071.3 1.5899e-14
26312.52 1.5465e-14
26494.92 1.5288e-14
26678.56 1.5009e-14
26925.43 1.4769e-14
27112.05 1.4533e-14
27300.0 1.4235e-14
27489.22 1.4008e-14
27679.76 1.3689e-14
27871.64 1.3501e-14
28129.55 1.3254e-14
28324.52 1.3013e-14
28520.84 1.2746e-14
28718.55 1.2513e-14
28917.6 1.2285e-14
29118.07 1.206e-14
29319.89 1.1813e-14
29523.14 1.1597e-14
29727.77 1.1412e-14
29933.85 1.1178e-14
30072.01 1.0999e-14
30280.45 1.0798e-14
30490.36 1.065e-14
30701.69 1.0504e-14
30914.53 1.0336e-14
31128.8 1.0194e-14
31272.51 1.0055e-14
31489.26 9.8938e-15
31707.52 9.7356e-15
31927.33 9.6241e-15
32074.68 9.4921e-15
32297.03 9.3619e-15
32520.89 9.276e-15
32670.99 9.2334e-15
32897.47 9.3619e-15
33125.49 9.2334e-15
33278.42 8.7976e-15
33509.07 8.5578e-15
33663.73 8.363e-15
33897.1 8.2104e-15
34132.05 8.042e-15
34289.62 7.9134e-15
34527.29 7.7689e-15
34686.65 7.6271e-15
34927.1 7.4879e-15
35088.31 7.3682e-15
35331.55 7.2171e-15
35494.62 7.1017e-15
35740.64 6.9721e-15
35905.64 6.8448e-15
36071.36 6.7354e-15
36321.38 6.6124e-15
36489.06 6.4768e-15
36741.97 6.3586e-15
36911.55 6.2282e-15
37081.95 6.1145e-15
37338.97 6.0167e-15
37511.35 5.8798e-15
37684.48 5.7991e-15
37858.41 5.6933e-15
38120.86 5.6022e-15
38296.8 5.5127e-15
38473.56 5.412e-15
38740.27 5.301e-15
38919.07 5.2043e-15
39098.7 5.1211e-15
39279.2 5.0276e-15
39460.5 4.9245e-15
39734.0 4.8458e-15
39917.44 4.7355e-15
40101.68 4.6705e-15
40286.76 4.5958e-15
40472.75 4.5015e-15
40659.55 4.4296e-15
40941.37 4.3587e-15
41130.37 4.2891e-15
41320.21 4.2205e-15
41510.92 4.1434e-15
41702.56 4.0772e-15
41895.03 4.012e-15
42088.4 3.9388e-15
42282.66 3.8937e-15
42477.86 3.8226e-15
42673.91 3.7702e-15
42870.87 3.6171e-15
43068.79 3.4623e-15
43267.57 3.4543e-15
43467.27 3.3217e-15
43667.94 3.2461e-15
43869.49 3.1942e-15
44071.96 3.0929e-15
44275.37 3.0434e-15
44479.77 2.9948e-15
44685.07 2.9199e-15
44891.31 2.8931e-15
45098.56 2.8468e-15
45306.7 2.7884e-15
45515.82 2.7629e-15
45725.94 2.725e-15
45936.99 2.6507e-15
46149.01 2.6446e-15
46255.38 2.6023e-15
46468.92 2.5725e-15
46683.4 2.5548e-15
46898.87 2.514e-15
47115.38 2.4738e-15
47332.84 2.4681e-15
47551.3 2.4175e-15
47660.91 2.3953e-15
47880.94 2.3679e-15
48101.93 2.3193e-15
48323.94 2.3193e-15
48547.03 2.277e-15
48658.94 2.2406e-15
48883.52 2.2098e-15
49109.14 2.1795e-15
49335.86 2.1595e-15
49449.58 2.125e-15
49677.81 2.1152e-15
49907.1 2.0812e-15
50137.5 2.0661e-15
50253.06 2.0467e-15
50485.01 2.0226e-15
50718.02 2.0125e-15
50834.98 2.0029e-15
50952.16 1.9933e-15
51069.61 1.9838e-15
51187.33 1.9698e-15
51305.32 1.9649e-15
51423.58 1.9555e-15
51542.17 1.9462e-15
51660.98 1.9413e-15
51780.06 1.9365e-15
51899.42 1.9228e-15
52019.05 1.9137e-15
52138.96 1.9045e-15
52259.14 1.8911e-15
52379.66 1.8864e-15
52500.4 1.8774e-15
52621.42 1.877e-15
52742.71 1.8724e-15
52864.29 1.8592e-15
52986.14 1.846e-15
53108.34 1.8372e-15
53230.76 1.8327e-15
53353.46 1.8281e-15
53476.44 1.8236e-15
53599.71 1.8149e-15
53723.26 1.8063e-15
53847.09 1.8018e-15
53971.28 1.7973e-15
54095.69 1.7888e-15
54220.38 1.7802e-15
54345.36 1.7677e-15
54470.63 1.7633e-15
54596.19 1.7589e-15
54722.04 1.7506e-15
54848.24 1.7422e-15
54974.67 1.7379e-15
55101.39 1.7296e-15
55228.4 1.7254e-15
55355.7 1.729e-15
55483.3 1.7129e-15
55611.26 1.7047e-15
55739.44 1.7044e-15
55867.93 1.6963e-15
55996.71 1.6921e-15
56125.78 1.688e-15
56255.16 1.6799e-15
56384.83 1.6719e-15
56514.86 1.6755e-15
56645.13 1.6714e-15
56775.7 1.6634e-15
56906.58 1.6555e-15
57037.75 1.6552e-15
57169.22 1.6549e-15
57301.07 1.6509e-15
57433.15 1.6506e-15
57565.54 1.6465e-15
57698.23 1.6425e-15
57831.23 1.6422e-15
57964.54 1.6457e-15
58098.15 1.6416e-15
58232.13 1.6414e-15
58366.36 1.6449e-15
58500.9 1.6446e-15
58635.75 1.6482e-15
58770.91 1.6479e-15
58906.38 1.6514e-15
59303.36 1.7489e-15
59611.91 1.9303e-15
59920.45 1.8783e-15
60229.0 1.7612e-15
60537.54 1.8388e-15
60846.08 1.9207e-15
61154.64 2.0535e-15
61463.18 2.1602e-15
61771.72 2.1875e-15
62080.27 2.4012e-15
62388.81 2.3272e-15
62697.35 2.1166e-15
63005.9 1.9917e-15
63314.45 1.5768e-15
63623.0 1.5876e-15
63931.54 1.6695e-15
64240.08 1.6847e-15
64548.63 1.4618e-15
64857.17 1.2217e-15
65165.72 1.2907e-15
65474.27 1.3522e-15
65782.81 1.1056e-15
66091.35 1.239e-15
66399.91 1.296e-15
66708.45 1.2466e-15
67016.99 1.2051e-15
67325.54 1.3645e-15
67634.08 1.3622e-15
67942.63 1.2095e-15
68251.18 1.3507e-15
68559.72 1.4897e-15
68868.27 1.3468e-15
69176.81 1.3643e-15
69485.36 1.3948e-15
69793.9 1.2895e-15
70102.45 1.2004e-15
70411.0 1.2965e-15
70719.54 1.312e-15
71028.08 1.4127e-15
71336.63 1.251e-15
71645.17 1.3837e-15
71953.73 1.475e-15
72262.26 1.385e-15
72570.81 1.4731e-15
72879.37 1.8764e-15
73187.9 1.5753e-15
73496.45 1.704e-15
73805.0 1.5284e-15
74113.54 1.5842e-15
74422.08 1.7622e-15
74730.63 1.6952e-15
75018.98 1.9398e-15
75039.18 1.902e-15
75347.73 2.02e-15
75637.29 2.0034e-15
75656.26 1.6822e-15
76255.61 2.1658e-15
76873.93 2.0394e-15
77492.25 2.0092e-15
78110.57 2.1204e-15
78728.9 1.8837e-15
79347.22 1.6292e-15
79965.53 1.4756e-15
80583.86 1.4424e-15
81202.18 1.3306e-15
81820.5 1.2856e-15
82438.82 1.3258e-15
83057.13 1.2541e-15
83675.47 1.188e-15
84293.78 1.1495e-15
84912.11 1.2662e-15
85530.42 1.3127e-15
86148.75 1.2732e-15
86767.06 1.1822e-15
87385.38 1.0782e-15
88003.71 9.5891e-16
88622.02 7.8714e-16
89240.34 7.8218e-16
89858.66 6.8317e-16
90476.98 6.7334e-16
91095.31 7.2085e-16
91713.63 6.2424e-16
92331.95 5.8519e-16
92950.27 5.5387e-16
93568.59 5.9623e-16
94186.91 5.4498e-16
94805.22 5.8386e-16
95423.55 5.4918e-16
96041.87 5.9786e-16
96660.18 6.8283e-16
97278.52 6.2053e-16
97896.84 5.7823e-16
98515.16 4.9725e-16
99133.48 4.8006e-16
99751.76 5.167e-16
100370.13 4.9424e-16
100988.4 4.7397e-16
101606.79 4.916e-16
102225.07 4.8924e-16
102843.44 4.7331e-16
103461.73 4.8363e-16
104080.01 4.9036e-16
104698.38 5.0081e-16
105316.65 5.5146e-16
105935.04 5.9032e-16
106553.32 5.7839e-16
107171.59 5.2699e-16
107789.97 5.1801e-16
108408.26 5.427e-16
109026.63 5.3832e-16
109644.9 5.7988e-16
110263.28 7.066e-16
110881.57 8.5501e-16
111499.84 1.2292e-15
112118.22 1.7656e-15
112736.5 1.7811e-15
113354.88 1.5087e-15
113973.15 1.2501e-15
114591.53 1.0757e-15
115209.81 8.9712e-16
115828.08 8.2136e-16
116446.47 7.2555e-16
117064.75 6.5426e-16
117683.12 6.4133e-16
118301.39 6.3885e-16
118919.78 7.0188e-16
119538.06 7.6602e-16
120156.33 7.5809e-16
120774.72 7.2291e-16
121393.0 6.8509e-16
122011.37 6.5687e-16
122629.64 7.1309e-16
123247.94 7.1241e-16
123866.31 6.9171e-16
124484.58 7.5242e-16
125102.96 7.4074e-16
125721.25 8.1499e-16
126339.62 7.8743e-16
126957.9 7.9469e-16
127576.18 8.2886e-16
128194.56 8.3803e-16
128812.83 6.6442e-16
129431.21 5.3965e-16
130049.49 5.2134e-16
130667.77 4.8467e-16
131286.14 5.0321e-16
131904.43 5.1152e-16
132522.81 4.7427e-16
133141.08 5.069e-16
133759.45 4.7495e-16
134377.74 4.5038e-16
134996.02 4.2985e-16
135614.4 4.4421e-16
136232.67 4.6547e-16
136851.05 4.0317e-16
137469.33 3.5455e-16
138087.71 3.5978e-16
138705.98 3.6723e-16
139324.27 3.8513e-16
139942.64 3.8053e-16
140560.93 3.4928e-16
141179.29 3.5692e-16
141797.58 3.9133e-16
142415.95 3.97e-16
143034.24 3.2778e-16
143652.51 3.5288e-16
144270.9 3.1245e-16
144802.94 3.0576e-16
145715.96 2.776e-16
146629.09 2.9036e-16
147542.12 2.5455e-16
148455.14 2.8398e-16
149368.18 2.2286e-16
150281.31 2.5017e-16
151194.34 2.5193e-16
152107.36 2.4185e-16
153020.49 2.6186e-16
153933.52 2.7643e-16
154846.54 2.8553e-16
155759.58 3.1713e-16
156672.71 2.6123e-16
157585.74 2.4376e-16
158498.76 2.5994e-16
159411.89 2.8772e-16
160324.93 2.8038e-16
161237.94 2.8841e-16
162151.07 2.9272e-16
163064.11 3.5047e-16
163977.13 4.1544e-16
164890.16 4.3301e-16
165803.31 4.0376e-16
166716.31 4.114e-16
167629.35 4.1761e-16
168542.38 4.1542e-16
169455.51 4.6961e-16
170368.54 5.9332e-16
171281.58 5.3073e-16
172194.71 4.2816e-16
173107.73 4.2417e-16
174020.76 3.7607e-16
174933.89 3.584e-16
175846.91 2.894e-16
176759.94 2.7797e-16
177672.96 2.7381e-16
178586.09 2.5561e-16
179499.13 2.3691e-16
180412.15 2.2617e-16
181325.27 2.1611e-16
182238.31 2.3062e-16
183151.33 2.3135e-16
184064.46 2.3113e-16
184977.49 2.2835e-16
185890.53 2.1513e-16
186803.55 2.5762e-16
187716.68 2.598e-16
188629.71 2.1956e-16
189542.73 1.911e-16
190455.87 1.9152e-16
191368.91 1.9605e-16
192281.91 2.0545e-16
193194.95 1.5929e-16
194108.09 1.7451e-16
195021.11 1.6645e-16
195934.15 1.846e-16
196847.27 1.7401e-16
197760.29 1.7018e-16
198673.33 1.9928e-16
199586.36 1.9248e-16
200499.49 1.5315e-16
201412.51 1.8278e-16
202325.55 1.5946e-16
203238.67 1.584e-16
204334.12 1.5111e-16
206091.98 1.5217e-16
207850.92 1.6536e-16
209610.75 1.4068e-16
211371.67 1.5662e-16
213133.61 1.3708e-16
214896.64 1.3857e-16
216660.55 1.3261e-16
218425.56 1.4229e-16
220191.59 1.3731e-16
221958.69 1.2867e-16
223726.8 1.3951e-16
225495.9 1.462e-16
227266.08 1.3753e-16
229037.27 1.305e-16
230809.46 1.3814e-16
232582.74 1.4665e-16
234357.03 1.3802e-16
236132.39 1.3318e-16
237908.86 1.4138e-16
239686.32 1.444e-16
241464.78 1.3743e-16
243244.35 1.3546e-16
245024.89 1.3401e-16
246806.65 1.3929e-16
248589.29 1.2777e-16
250373.01 1.287e-16
252157.85 1.2686e-16
253943.78 1.2852e-16
255730.7 1.2505e-16
257518.71 1.3914e-16
259307.83 1.4818e-16
261098.04 1.3516e-16
262889.26 1.2829e-16
264681.53 1.2051e-16
266474.96 1.1986e-16
268269.32 1.2412e-16
270064.92 1.1476e-16
271861.49 1.1768e-16
273659.19 1.2128e-16
275457.96 1.1814e-16
277257.83 1.1512e-16
279058.79 1.1954e-16
280860.84 1.2953e-16
282664.0 1.3704e-16
284468.26 1.1939e-16
286273.61 1.146e-16
288080.04 1.1103e-16
289887.56 1.1068e-16
291696.21 1.1274e-16
293505.94 1.1807e-16
295316.76 1.1419e-16
297128.77 1.1401e-16
298941.89 1.1302e-16
300755.98 1.178e-16
302571.29 1.1143e-16
304387.68 1.1839e-16
306205.28 1.1367e-16
308023.88 1.1925e-16
309843.67 1.1445e-16
311664.64 1.1905e-16
313486.63 1.1805e-16
315309.81 1.1846e-16
317134.13 1.2429e-16
318959.49 1.1351e-16
320786.05 1.182e-16
322613.84 1.2763e-16
324442.64 1.186e-16
326272.57 1.2125e-16
328103.75 1.2433e-16
329936.07 1.172e-16
331769.48 1.2525e-16
333604.02 1.4007e-16
335439.74 1.5897e-16
337276.67 1.2855e-16
339114.75 1.2449e-16
340953.95 1.1829e-16
342794.27 1.1819e-16
344635.84 1.1942e-16
346478.56 1.5052e-16
348322.43 2.0957e-16
