# col1 col2
# An Atlas of Galaxy Spectral Energy Distributions from the Ultraviolet to the Mid-Infrared
# Brown et al. (2014)
# http://dx.doi.org/10.5072/03/529D3551F0117
# 
# Column 1 : Restframe Wavelength (Angstrom)
# Column 2 : Flux per unit wavelength (ergs/s/cm^2/Angstrom)
# Column 3 : Observed wavelength (Angstrom)
# Column 4 : Source (0 = model, 1 = Optical Spectrum, 2 = Akari, 3 = Spitzer IRS)
# 
100.01 1.3799e-19
102.1 1.896e-19
104.0 2.376e-19
105.93 3.0328e-19
107.9 3.9431e-19
109.91 5.7391e-19
114.03 8.587e-19
118.04 1.2074e-18
121.07 4.5797e-18
125.03 5.9407e-18
127.07 6.559e-18
127.95 7.0281e-18
130.93 8.0138e-18
132.14 9.5684e-18
133.98 1.0348e-17
137.1 1.3454e-17
139.97 1.5095e-17
142.9 4.4243e-17
146.9 1.1853e-16
151.02 1.3027e-16
154.89 1.4449e-16
158.86 1.6064e-16
161.82 1.7292e-16
165.97 1.9313e-16
169.84 2.103e-16
172.99 2.2534e-16
177.02 2.4425e-16
179.9 2.5873e-16
181.98 2.6967e-16
185.79 2.903e-16
191.0 3.183e-16
194.1 3.3794e-16
198.17 3.5962e-16
201.85 3.8534e-16
205.13 4.0443e-16
209.91 4.1672e-16
215.79 4.7516e-16
219.8 5.0448e-16
222.86 5.1861e-16
227.0 5.5187e-16
230.16 8.5279e-16
233.9 1.4718e-15
239.9 1.8359e-15
246.05 1.7654e-15
251.78 1.896e-15
257.06 1.6212e-15
260.03 1.87e-15
264.26 1.9762e-15
269.17 1.9854e-15
274.17 1.9945e-15
279.27 2.0037e-15
283.81 2.013e-15
289.75 1.9313e-15
295.82 1.9762e-15
301.32 1.9626e-15
308.34 1.9945e-15
317.71 2.041e-15
328.12 2.041e-15
338.09 2.0269e-15
348.36 2.0037e-15
357.3 1.9854e-15
365.62 1.9808e-15
375.0 1.9536e-15
384.62 1.87e-15
395.39 1.896e-15
404.6 1.883e-15
414.03 1.8486e-15
421.72 1.8107e-15
429.56 1.7776e-15
440.58 1.7492e-15
450.85 1.7055e-15
460.29 1.6666e-15
469.92 1.6325e-15
479.76 1.6064e-15
489.81 1.5518e-15
500.07 1.5341e-15
505.86 1.4991e-15
511.71 1.5305e-15
520.03 1.5026e-15
529.7 1.4583e-15
539.54 1.3991e-15
549.58 1.3641e-15
559.79 1.3578e-15
570.2 1.3485e-15
579.47 1.3027e-15
590.24 1.2848e-15
599.83 1.227e-15
609.58 1.081e-15
619.48 1.2018e-15
629.55 1.1637e-15
639.78 1.1504e-15
650.17 1.119e-15
657.7 1.0835e-15
665.31 1.086e-15
674.57 1.0687e-15
685.53 1.0135e-15
695.07 1.0206e-15
704.74 9.6347e-16
716.19 9.7913e-16
726.15 9.5684e-16
734.56 9.4154e-16
744.78 9.1588e-16
755.14 8.9504e-16
765.64 8.088e-16
774.51 8.587e-16
785.29 8.2573e-16
794.38 8.2005e-16
805.43 8.088e-16
814.76 7.9221e-16
824.19 7.8134e-16
835.66 7.1753e-16
845.33 7.4617e-16
855.12 7.2919e-16
865.02 7.1918e-16
875.04 7.1095e-16
885.17 6.9798e-16
895.42 6.8682e-16
905.79 6.6964e-16
914.17 7.7418e-16
924.76 1.4583e-15
935.46 2.3059e-15
944.12 3.4741e-15
955.05 4.4652e-15
963.89 4.8066e-15
975.05 1.6027e-15
984.07 3.9705e-15
995.47 4.148e-15
1004.68 5.7523e-15
1013.98 5.6473e-15
1025.72 2.8304e-15
1035.21 4.196e-15
1044.79 7.225e-15
1054.45 7.0606e-15
1064.21 5.5955e-15
1074.06 6.544e-15
1084.0 5.1149e-15
1094.03 6.8209e-15
1104.15 6.544e-15
1114.37 6.2351e-15
1124.68 5.5698e-15
1135.08 7.0281e-15
1145.59 6.4097e-15
1156.18 6.7739e-15
1164.2 6.884e-15
1174.97 4.7516e-15
1185.84 6.6197e-15
1194.06 4.6542e-15
1205.11 3.4821e-15
1216.26 2.5052e-15
1224.69 4.6972e-15
1236.03 6.8209e-15
1244.59 7.3933e-15
1256.11 7.012e-15
1264.82 6.0651e-15
1273.58 7.7775e-15
1285.37 8.1253e-15
1294.28 6.3218e-15
1306.25 6.2351e-15
1315.31 7.8314e-15
1324.42 7.4446e-15
1333.61 6.5289e-15
1345.95 7.8314e-15
1355.27 7.5481e-15
1364.67 6.6964e-15
1374.13 7.012e-15
1383.65 7.0443e-15
1396.46 6.0234e-15
1406.14 6.1779e-15
1415.88 6.4393e-15
1425.7 6.6045e-15
1435.58 6.559e-15
1442.21 6.8999e-15
1445.53 7.012e-15
1455.55 6.7739e-15
1465.64 6.2064e-15
1475.8 6.1921e-15
1486.03 6.3218e-15
1496.33 6.4097e-15
1506.7 6.0234e-15
1513.66 5.3314e-15
1517.15 5.7127e-15
1524.15 5.5315e-15
1534.71 4.7845e-15
1545.35 5.2461e-15
1556.06 4.9527e-15
1563.25 5.0448e-15
1574.08 5.443e-15
1584.99 5.7391e-15
1595.98 5.8863e-15
1603.35 5.7391e-15
1614.46 5.7391e-15
1625.65 5.3683e-15
1633.15 5.7523e-15
1644.48 5.9271e-15
1655.87 5.3314e-15
1663.52 5.9544e-15
1671.2 5.1267e-15
1678.91 6.8999e-15
1686.66 7.2084e-15
1694.44 6.4989e-15
1706.19 6.3656e-15
1714.07 6.5742e-15
1725.95 6.6656e-15
1733.91 7.4617e-15
1745.93 7.1588e-15
1753.99 8.144e-15
1766.15 6.884e-15
1774.3 7.618e-15
1786.6 7.6708e-15
1794.85 9.1588e-15
1803.13 8.5083e-15
1815.63 8.2764e-15
1824.01 8.2005e-15
1836.65 7.6708e-15
1845.13 6.7739e-15
1853.65 7.5481e-15
1866.5 8.4887e-15
1875.11 8.5475e-15
1883.77 8.3146e-15
1896.83 8.787e-15
1905.58 8.7265e-15
1914.38 8.8276e-15
1923.21 8.2005e-15
1936.54 6.6197e-15
1945.48 9.5464e-15
1954.46 9.4154e-15
1968.01 1.0785e-14
1977.09 1.0443e-14
1986.22 1.0687e-14
1995.39 1.0564e-14
2004.6 1.0089e-14
2013.85 9.8819e-15
2023.15 9.4154e-15
2037.17 1.0492e-14
2046.57 1.1451e-14
2056.02 1.081e-14
2065.51 1.0395e-14
2075.04 1.2074e-14
2079.83 1.52e-14
2084.62 1.64e-14
2094.24 1.5235e-14
2103.91 1.4185e-14
2113.62 1.4991e-14
2123.38 1.4516e-14
2133.18 1.2672e-14
2143.03 1.52e-14
2152.92 1.5518e-14
2162.85 1.3926e-14
2172.84 1.412e-14
2182.87 1.577e-14
2192.94 1.6476e-14
2203.07 1.5662e-14
2213.23 1.2997e-14
2223.45 1.3485e-14
2233.71 1.6976e-14
2244.02 1.5843e-14
2254.38 1.3087e-14
2264.79 1.2967e-14
2275.24 1.4383e-14
2285.74 1.6937e-14
2296.29 1.4753e-14
2306.89 1.6561e-14
2317.54 1.4734e-14
2322.88 1.0386e-14
2333.6 1.0856e-14
2344.38 8.3156e-15
2355.2 1.3493e-14
2366.07 8.838e-15
2376.99 1.098e-14
2382.47 7.3063e-15
2393.47 8.9317e-15
2404.51 8.7734e-15
2415.61 9.9862e-15
2426.76 1.4881e-14
2432.36 1.4749e-14
2443.58 1.6943e-14
2454.86 1.7548e-14
2466.19 1.6087e-14
2477.58 1.4545e-14
2483.29 1.2101e-14
2494.75 1.2534e-14
2506.27 1.7919e-14
2512.04 1.001e-14
2517.84 8.6012e-15
2523.64 8.9265e-15
2535.29 1.148e-14
2546.99 1.2111e-14
2552.86 1.8336e-14
2564.65 1.4708e-14
2576.48 1.7939e-14
2582.42 1.6555e-14
2594.34 1.5211e-14
2606.32 1.3565e-14
2612.33 1.2346e-14
2624.38 1.6474e-14
2636.5 2.4046e-14
2642.58 3.2076e-14
2654.77 4.1156e-14
2667.03 2.7333e-14
2673.17 3.132e-14
2685.51 3.4441e-14
2697.91 2.7248e-14
2704.13 3.2618e-14
2716.61 2.5219e-14
2722.87 2.2328e-14
2735.44 2.6553e-14
2748.07 1.5573e-14
2754.4 1.9702e-14
2767.12 2.4365e-14
2773.5 2.6786e-14
2786.3 1.779e-14
2792.72 8.2282e-15
2805.61 1.0013e-14
2812.08 2.4644e-14
2825.06 3.4513e-14
2838.1 3.3439e-14
2844.64 2.7886e-14
2857.77 1.9983e-14
2864.36 3.5383e-14
2877.58 4.2861e-14
2884.21 3.9738e-14
2897.53 4.4924e-14
2910.9 5.9396e-14
2931.08 5.2622e-14
2951.4 4.9727e-14
2971.85 5.3212e-14
2992.45 5.413e-14
3013.2 5.5445e-14
3027.11 5.7963e-14
3048.09 5.9921e-14
3069.22 6.4865e-14
3090.49 6.523e-14
3111.91 7.2258e-14
3133.48 6.8285e-14
3147.95 6.9123e-14
3169.77 7.4143e-14
3191.74 6.4642e-14
3206.47 7.1749e-14
3228.7 6.1132e-14
3251.08 8.1606e-14
3273.61 9.3796e-14
3288.72 9.2149e-14
3311.52 8.891e-14
3319.15 8.4939e-14
3326.81 8.419e-14
3334.47 9.5591e-14
3342.16 8.7412e-14
3349.87 9.413e-14
3357.59 9.6579e-14
3365.33 7.3458e-14
3373.09 6.8896e-14
3380.86 9.4919e-14
3388.65 9.4083e-14
3396.47 8.1221e-14
3404.3 1.0252e-13
3412.14 8.8102e-14
3420.01 9.3787e-14
3427.89 9.1475e-14
3435.8 9.5601e-14
3443.72 7.2715e-14
3451.66 9.3925e-14
3459.61 9.4176e-14
3467.59 9.1855e-14
3475.58 9.4029e-14
3483.59 9.3632e-14
3491.62 9.3883e-14
3499.67 8.0491e-14
3507.74 1.0373e-13
3515.83 8.7111e-14
3523.93 9.7777e-14
3532.05 9.5367e-14
3540.2 1.0655e-13
3548.36 1.1162e-13
3556.54 9.9744e-14
3564.74 1.0521e-13
3572.95 7.9656e-14
3581.19 8.5582e-14
3589.45 6.5095e-14
3597.72 9.8563e-14
3606.01 1.0113e-13
3614.33 9.1632e-14
3622.66 8.0392e-14
3630.46 1.1375e-13
3633.2 1.0266e-13
3635.95 9.9614e-14
3638.69 9.644e-14
3641.44 1.0722e-13
3644.18 1.1473e-13
3646.92 9.0067e-14
3649.67 1.1199e-13
3652.41 1.0795e-13
3655.16 1.1098e-13
3657.9 1.2038e-13
3660.64 1.3878e-13
3663.39 1.1922e-13
3666.13 1.2646e-13
3668.87 1.0724e-13
3671.62 1.0214e-13
3674.36 1.1383e-13
3677.11 1.182e-13
3679.85 1.145e-13
3682.59 1.0388e-13
3685.34 1.1451e-13
3688.08 1.1509e-13
3690.83 1.2293e-13
3693.57 1.1427e-13
3696.31 1.317e-13
3699.06 1.3636e-13
3701.8 1.274e-13
3704.54 1.1088e-13
3707.29 1.1735e-13
3710.03 1.109e-13
3712.78 1.1528e-13
3715.52 1.2335e-13
3718.26 1.353e-13
3721.01 1.2155e-13
3723.75 1.2015e-13
3726.5 1.185e-13
3729.24 1.1804e-13
3731.98 1.1678e-13
3734.73 9.6981e-14
3737.47 9.6332e-14
3740.21 1.0951e-13
3742.96 1.0956e-13
3745.7 1.0638e-13
3748.45 1.0129e-13
3751.19 1.018e-13
3753.93 1.1229e-13
3756.68 1.131e-13
3759.42 1.2485e-13
3762.17 1.2133e-13
3764.91 1.2285e-13
3767.65 1.2479e-13
3770.4 1.1322e-13
3773.14 1.2943e-13
3775.88 1.3686e-13
3778.63 1.4041e-13
3781.37 1.3707e-13
3784.12 1.2691e-13
3786.86 1.4279e-13
3789.6 1.2925e-13
3792.35 1.3184e-13
3795.09 1.1141e-13
3797.84 1.1441e-13
3800.58 1.2974e-13
3803.32 1.2089e-13
3806.07 1.3016e-13
3808.81 1.2829e-13
3811.55 1.2365e-13
3814.3 1.1479e-13
3817.04 1.2169e-13
3819.79 1.2026e-13
3822.53 1.1027e-13
3825.27 1.0356e-13
3828.02 8.5437e-14
3830.76 9.0508e-14
3833.51 9.6046e-14
3836.25 8.2602e-14
3838.99 9.0046e-14
3841.74 1.0394e-13
3844.48 1.0462e-13
3847.22 1.1917e-13
3849.97 1.2903e-13
3852.71 1.1643e-13
3855.46 1.2466e-13
3858.2 1.2609e-13
3860.94 1.1776e-13
3863.69 1.112e-13
3866.43 1.2715e-13
3869.18 1.2622e-13
3871.92 1.2868e-13
3874.66 1.148e-13
3877.41 1.1539e-13
3880.15 1.1303e-13
3882.89 1.1683e-13
3885.64 1.0716e-13
3888.38 1.2235e-13
3891.13 1.195e-13
3893.87 1.2405e-13
3896.61 1.409e-13
3899.36 1.3614e-13
3902.1 1.3557e-13
3904.85 1.4357e-13
3907.59 1.4032e-13
3910.33 1.4925e-13
3913.08 1.4003e-13
3915.82 1.4764e-13
3918.56 1.4509e-13
3921.31 1.3764e-13
3924.05 1.2295e-13
3926.8 1.0817e-13
3929.54 1.0002e-13
3932.28 8.7693e-14
3935.03 7.9365e-14
3937.77 8.1308e-14
3940.52 9.0182e-14
3943.26 1.119e-13
3946.0 1.2279e-13
3948.75 1.3266e-13
3951.49 1.4281e-13
3954.23 1.4361e-13
3956.98 1.3979e-13
3959.72 1.3586e-13
3962.47 1.2109e-13
3965.21 9.9492e-14
3967.95 8.9211e-14
3970.7 8.4167e-14
3973.44 9.2271e-14
3976.19 1.0881e-13
3978.93 1.2828e-13
3981.67 1.5195e-13
3984.42 1.6784e-13
3987.16 1.7014e-13
3989.9 1.7398e-13
3992.65 1.82e-13
3995.39 1.8455e-13
3998.14 1.9026e-13
4000.88 1.9243e-13
4003.62 1.8775e-13
4006.37 1.9065e-13
4009.11 1.9177e-13
4011.86 1.9665e-13
4014.6 1.9835e-13
4017.34 2.0361e-13
4020.09 1.9956e-13
4022.83 1.9988e-13
4025.57 2.0437e-13
4028.32 1.9937e-13
4031.06 1.9377e-13
4033.81 1.9066e-13
4036.55 1.9409e-13
4039.29 2.0111e-13
4042.04 1.9906e-13
4044.78 1.8764e-13
4047.53 1.8999e-13
4050.27 1.9353e-13
4053.01 1.9111e-13
4055.76 1.9431e-13
4058.5 1.9588e-13
4061.24 1.9095e-13
4063.99 1.9014e-13
4066.73 1.8917e-13
4069.48 1.9143e-13
4072.22 1.8896e-13
4074.96 1.8556e-13
4077.71 1.9367e-13
4080.45 1.9644e-13
4083.2 1.968e-13
4085.94 2.0372e-13
4088.68 2.1116e-13
4091.43 2.0853e-13
4094.17 2.0047e-13
4096.91 1.9246e-13
4099.66 1.8523e-13
4102.4 1.7224e-13
4105.15 1.6869e-13
4107.89 1.814e-13
4110.63 1.8949e-13
4113.38 1.9212e-13
4116.12 1.9655e-13
4118.87 2.021e-13
4121.61 1.9981e-13
4124.35 2.0161e-13
4127.1 2.0235e-13
4129.84 1.9528e-13
4132.58 1.9696e-13
4135.33 2.0089e-13
4138.07 2.036e-13
4140.82 2.0582e-13
4143.56 2.0105e-13
4146.3 2.0124e-13
4149.05 1.9509e-13
4151.79 1.9519e-13
4154.54 1.9858e-13
4157.28 2.0009e-13
4160.02 2.0117e-13
4162.77 2.0034e-13
4165.51 2.0549e-13
4168.25 2.0162e-13
4171.0 1.9431e-13
4173.74 1.9375e-13
4176.49 1.9145e-13
4179.23 1.8785e-13
4181.97 1.8965e-13
4184.72 1.91e-13
4187.46 1.933e-13
4190.21 1.996e-13
4192.95 1.9496e-13
4195.69 1.9178e-13
4198.44 1.9081e-13
4201.18 1.9413e-13
4203.92 1.9403e-13
4206.67 2.0182e-13
4209.41 2.0258e-13
4212.16 2.0949e-13
4214.9 2.0447e-13
4217.64 2.094e-13
4220.39 2.0769e-13
4223.13 1.9319e-13
4225.88 1.8873e-13
4228.62 1.8967e-13
4231.36 1.8858e-13
4234.11 1.9533e-13
4236.85 1.9958e-13
4239.59 2.0351e-13
4242.34 2.0442e-13
4245.08 2.1098e-13
4247.83 2.126e-13
4250.57 2.0455e-13
4253.31 2.0577e-13
4256.06 2.0545e-13
4258.8 1.9826e-13
4261.55 1.9947e-13
4264.29 2.0502e-13
4267.03 2.1081e-13
4269.78 2.0266e-13
4272.52 1.9326e-13
4275.26 1.8839e-13
4278.01 1.9605e-13
4280.75 1.9936e-13
4283.5 1.9814e-13
4286.24 1.9592e-13
4288.98 1.9027e-13
4291.73 1.8997e-13
4294.47 1.8473e-13
4297.22 1.7964e-13
4299.96 1.6686e-13
4302.7 1.5685e-13
4305.45 1.6015e-13
4308.19 1.5897e-13
4310.93 1.6126e-13
4313.68 1.7766e-13
4316.42 2.0314e-13
4319.17 2.0813e-13
4321.91 2.1339e-13
4324.65 2.1289e-13
4327.4 2.0631e-13
4330.14 2.12e-13
4332.89 2.1863e-13
4335.63 2.154e-13
4338.37 2.1073e-13
4341.12 2.0072e-13
4343.86 2.0042e-13
4346.61 2.0871e-13
4349.35 2.2334e-13
4352.09 2.2329e-13
4354.84 2.2285e-13
4357.58 2.3226e-13
4360.32 2.3463e-13
4363.07 2.3159e-13
4365.81 2.456e-13
4368.56 2.4091e-13
4371.3 2.3635e-13
4374.04 2.2103e-13
4376.79 2.1937e-13
4379.53 2.148e-13
4382.28 2.1332e-13
4385.02 2.0782e-13
4387.76 2.057e-13
4390.51 2.0864e-13
4393.25 2.2162e-13
4395.99 2.119e-13
4398.74 2.2343e-13
4401.48 2.3178e-13
4404.23 2.1755e-13
4406.97 2.1998e-13
4409.71 2.3161e-13
4412.46 2.2584e-13
4415.2 2.3316e-13
4417.95 2.4044e-13
4420.69 2.4017e-13
4423.43 2.4258e-13
4426.18 2.3834e-13
4428.92 2.4824e-13
4431.66 2.3311e-13
4434.41 2.3758e-13
4437.15 2.3822e-13
4439.9 2.4324e-13
4442.64 2.4399e-13
4445.38 2.4813e-13
4448.13 2.4884e-13
4450.87 2.5163e-13
4453.62 2.4578e-13
4456.36 2.3473e-13
4459.1 2.3008e-13
4461.85 2.27e-13
4464.59 2.3398e-13
4467.33 2.4008e-13
4470.08 2.4554e-13
4472.82 2.5175e-13
4475.57 2.5676e-13
4478.31 2.5164e-13
4481.05 2.5626e-13
4483.8 2.5415e-13
4486.54 2.583e-13
4489.29 2.6138e-13
4492.03 2.5697e-13
4494.77 2.5955e-13
4497.52 2.6092e-13
4500.26 2.6211e-13
4503.0 2.6542e-13
4505.75 2.7511e-13
4508.49 2.8185e-13
4511.24 2.7463e-13
4513.98 2.704e-13
4516.72 2.6985e-13
4519.47 2.7423e-13
4522.21 2.6978e-13
4524.96 2.6294e-13
4527.7 2.5149e-13
4530.44 2.4203e-13
4533.19 2.4381e-13
4535.93 2.4774e-13
4538.67 2.5027e-13
4541.42 2.5511e-13
4544.16 2.5791e-13
4546.91 2.5865e-13
4549.65 2.5415e-13
4552.39 2.5444e-13
4555.14 2.5439e-13
4557.88 2.5524e-13
4560.63 2.5806e-13
4563.37 2.6657e-13
4566.11 2.7342e-13
4568.86 2.6953e-13
4571.6 2.7242e-13
4574.34 2.7175e-13
4577.09 2.7168e-13
4579.83 2.6886e-13
4582.58 2.6099e-13
4585.32 2.5999e-13
4588.06 2.6323e-13
4590.81 2.6768e-13
4593.55 2.6697e-13
4596.3 2.6128e-13
4599.04 2.6305e-13
4601.78 2.6103e-13
4604.53 2.6248e-13
4607.27 2.6975e-13
4610.01 2.7543e-13
4612.76 2.7806e-13
4615.5 2.8295e-13
4618.25 2.8466e-13
4620.99 2.8541e-13
4623.73 2.8419e-13
4626.48 2.8173e-13
4629.22 2.8045e-13
4631.97 2.7615e-13
4634.71 2.7745e-13
4637.45 2.7407e-13
4640.2 2.7191e-13
4642.94 2.6885e-13
4645.68 2.6153e-13
4648.43 2.59e-13
4651.17 2.6175e-13
4653.92 2.6127e-13
4656.66 2.6411e-13
4659.4 2.7e-13
4662.15 2.7262e-13
4664.89 2.6634e-13
4667.64 2.5997e-13
4670.38 2.5464e-13
4673.12 2.5466e-13
4675.87 2.6014e-13
4678.61 2.6295e-13
4681.35 2.63e-13
4684.1 2.629e-13
4686.84 2.6546e-13
4689.59 2.6356e-13
4692.33 2.6377e-13
4695.07 2.6026e-13
4697.82 2.6431e-13
4700.56 2.6342e-13
4703.31 2.5588e-13
4706.05 2.517e-13
4708.79 2.5341e-13
4711.54 2.5493e-13
4714.28 2.5937e-13
4717.02 2.6428e-13
4719.77 2.677e-13
4722.51 2.6969e-13
4725.26 2.7155e-13
4728.0 2.7222e-13
4730.74 2.697e-13
4733.49 2.6477e-13
4736.23 2.6583e-13
4738.98 2.7015e-13
4741.72 2.7297e-13
4744.46 2.7604e-13
4747.21 2.7873e-13
4749.95 2.8131e-13
4752.69 2.7891e-13
4755.44 2.7838e-13
4758.18 2.6976e-13
4760.93 2.6622e-13
4763.67 2.6476e-13
4766.41 2.6414e-13
4769.16 2.6757e-13
4771.9 2.7423e-13
4774.65 2.7439e-13
4777.39 2.7677e-13
4780.13 2.7891e-13
4782.88 2.7708e-13
4785.62 2.7624e-13
4788.36 2.7415e-13
4791.11 2.7574e-13
4793.85 2.7894e-13
4796.6 2.82e-13
4799.34 2.8528e-13
4802.08 2.8336e-13
4804.83 2.84e-13
4807.57 2.8432e-13
4810.32 2.8263e-13
4813.06 2.831e-13
4815.8 2.8801e-13
4818.55 2.9351e-13
4821.29 2.8869e-13
4824.03 2.873e-13
4826.78 2.8245e-13
4829.52 2.782e-13
4832.27 2.7915e-13
4835.01 2.8046e-13
4837.75 2.823e-13
4840.5 2.8029e-13
4843.24 2.7434e-13
4845.99 2.737e-13
4848.73 2.7503e-13
4851.47 2.7841e-13
4854.22 2.7232e-13
4856.96 2.6583e-13
4859.7 2.5148e-13
4862.45 2.4126e-13
4865.19 2.3977e-13
4867.94 2.4764e-13
4870.68 2.5259e-13
4873.42 2.5675e-13
4876.17 2.6359e-13
4878.91 2.6906e-13
4881.66 2.7195e-13
4884.4 2.6932e-13
4887.14 2.659e-13
4889.89 2.65e-13
4892.63 2.644e-13
4895.37 2.7144e-13
4898.12 2.829e-13
4900.86 2.8603e-13
4903.61 2.8388e-13
4906.35 2.8066e-13
4909.09 2.8006e-13
4911.84 2.8004e-13
4914.58 2.8001e-13
4917.33 2.7183e-13
4920.07 2.6461e-13
4922.81 2.625e-13
4925.56 2.6729e-13
4928.3 2.7004e-13
4931.04 2.7717e-13
4933.79 2.8437e-13
4936.53 2.774e-13
4939.28 2.7518e-13
4942.02 2.7929e-13
4944.76 2.8204e-13
4947.51 2.861e-13
4950.25 2.9071e-13
4953.0 2.8851e-13
4955.74 2.8608e-13
4958.48 2.8032e-13
4961.23 2.7506e-13
4963.97 2.7501e-13
4966.71 2.7365e-13
4969.46 2.7553e-13
4972.2 2.8369e-13
4974.95 2.8521e-13
4977.69 2.7646e-13
4980.43 2.7035e-13
4983.18 2.7115e-13
4985.92 2.6223e-13
4988.67 2.617e-13
4991.41 2.6599e-13
4994.15 2.6865e-13
4996.9 2.7089e-13
4999.64 2.681e-13
5002.38 2.6317e-13
5005.13 2.6628e-13
5007.87 2.6898e-13
5010.62 2.6782e-13
5013.36 2.5667e-13
5016.1 2.5474e-13
5018.85 2.5132e-13
5021.59 2.5102e-13
5024.34 2.5585e-13
5027.08 2.5692e-13
5029.82 2.6227e-13
5032.57 2.6722e-13
5035.31 2.7186e-13
5038.05 2.6376e-13
5040.8 2.5946e-13
5043.54 2.6599e-13
5046.29 2.5878e-13
5049.03 2.6073e-13
5051.77 2.6567e-13
5054.52 2.6874e-13
5057.26 2.7517e-13
5060.01 2.7859e-13
5062.75 2.7866e-13
5065.49 2.7683e-13
5068.24 2.7725e-13
5070.98 2.6686e-13
5073.72 2.6272e-13
5076.47 2.6677e-13
5079.21 2.652e-13
5081.96 2.6246e-13
5084.7 2.5981e-13
5087.44 2.6333e-13
5090.19 2.6381e-13
5092.93 2.6904e-13
5095.68 2.6935e-13
5098.42 2.6847e-13
5101.16 2.6134e-13
5103.91 2.6136e-13
5106.65 2.6401e-13
5109.39 2.6426e-13
5112.14 2.6205e-13
5114.88 2.6698e-13
5117.63 2.6984e-13
5120.37 2.734e-13
5123.11 2.6392e-13
5125.86 2.6246e-13
5128.6 2.5587e-13
5131.35 2.5679e-13
5134.09 2.6028e-13
5136.83 2.5895e-13
5139.58 2.5982e-13
5142.32 2.5807e-13
5145.06 2.5547e-13
5147.81 2.5346e-13
5150.55 2.482e-13
5153.3 2.5538e-13
5156.04 2.5816e-13
5158.78 2.5793e-13
5161.53 2.5975e-13
5164.27 2.4978e-13
5167.02 2.345e-13
5169.76 2.2408e-13
5172.5 2.1554e-13
5175.25 2.1699e-13
5177.99 2.2366e-13
5180.73 2.2994e-13
5183.48 2.3282e-13
5186.22 2.3271e-13
5188.97 2.3377e-13
5191.71 2.415e-13
5194.45 2.5011e-13
5197.2 2.5556e-13
5199.94 2.6017e-13
5202.69 2.5558e-13
5205.43 2.514e-13
5208.17 2.5194e-13
5210.92 2.4928e-13
5213.66 2.5313e-13
5216.4 2.5929e-13
5219.15 2.6719e-13
5221.89 2.6857e-13
5224.64 2.6714e-13
5227.38 2.6517e-13
5230.12 2.6155e-13
5232.87 2.6319e-13
5235.61 2.6571e-13
5238.36 2.7333e-13
5241.1 2.7831e-13
5243.84 2.771e-13
5246.59 2.7808e-13
5249.33 2.7769e-13
5252.07 2.7112e-13
5254.82 2.7365e-13
5257.56 2.7694e-13
5260.31 2.7642e-13
5263.05 2.6576e-13
5265.79 2.5804e-13
5268.54 2.4469e-13
5271.28 2.4287e-13
5274.03 2.5055e-13
5276.77 2.6186e-13
5279.51 2.7255e-13
5282.26 2.7922e-13
5285.0 2.8426e-13
5287.74 2.8808e-13
5290.49 2.9294e-13
5293.23 2.9577e-13
5295.98 2.9071e-13
5298.72 2.8735e-13
5301.46 2.8346e-13
5304.21 2.8749e-13
5306.95 3.0108e-13
5309.7 3.0646e-13
5312.44 3.0423e-13
5315.18 3.0595e-13
5317.93 3.0383e-13
5320.67 2.9999e-13
5323.42 2.8945e-13
5326.16 2.8294e-13
5328.9 2.7589e-13
5331.65 2.7565e-13
5334.39 2.7807e-13
5337.13 2.8444e-13
5339.88 2.9027e-13
5342.62 2.9471e-13
5345.37 2.9037e-13
5348.11 2.882e-13
5350.85 2.9575e-13
5353.6 2.9889e-13
5356.34 3.0531e-13
5359.09 3.1047e-13
5361.83 3.0727e-13
5364.57 3.0067e-13
5367.32 2.9383e-13
5370.06 2.9092e-13
5372.8 2.8886e-13
5375.55 2.9206e-13
5378.29 2.9831e-13
5381.04 3.0009e-13
5383.78 2.9712e-13
5386.52 2.9337e-13
5389.27 2.9399e-13
5392.01 2.9084e-13
5394.76 2.8826e-13
5397.5 2.8295e-13
5400.24 2.7776e-13
5402.99 2.7718e-13
5405.73 2.7322e-13
5408.47 2.7331e-13
5411.22 2.7575e-13
5413.96 2.8408e-13
5416.71 2.8942e-13
5419.45 2.9108e-13
5422.19 2.926e-13
5424.94 2.8972e-13
5427.68 2.8978e-13
5430.43 2.8589e-13
5433.17 2.8578e-13
5435.91 2.8339e-13
5438.66 2.8854e-13
5441.4 2.9177e-13
5444.14 2.9757e-13
5446.89 2.9355e-13
5449.63 2.876e-13
5452.38 2.8638e-13
5455.12 2.8299e-13
5457.86 2.862e-13
5460.61 2.8877e-13
5463.35 2.8893e-13
5466.1 2.8624e-13
5468.84 2.8705e-13
5471.58 2.8733e-13
5474.33 2.8272e-13
5477.07 2.813e-13
5479.81 2.7982e-13
5482.56 2.8356e-13
5485.3 2.875e-13
5488.05 2.8916e-13
5490.79 2.9174e-13
5493.53 2.9141e-13
5496.28 2.9442e-13
5499.02 2.952e-13
5501.77 2.9491e-13
5504.51 2.9293e-13
5507.25 2.8564e-13
5510.0 2.8318e-13
5512.74 2.8331e-13
5515.48 2.8686e-13
5518.23 2.8918e-13
5520.97 2.9113e-13
5523.72 2.9162e-13
5526.46 2.919e-13
5529.2 2.931e-13
5531.95 2.9278e-13
5534.69 2.9525e-13
5537.44 2.8843e-13
5540.18 2.9127e-13
5542.92 2.8984e-13
5545.67 3.0162e-13
5548.41 2.9789e-13
5551.15 3.0116e-13
5553.9 3.0439e-13
5556.64 2.994e-13
5559.39 3.0227e-13
5562.13 2.9114e-13
5564.87 2.899e-13
5567.62 2.9015e-13
5570.36 2.9065e-13
5573.11 2.8396e-13
5575.85 2.9549e-13
5578.59 2.9038e-13
5581.34 2.8863e-13
5584.08 2.9416e-13
5586.82 2.8833e-13
5589.57 2.7746e-13
5592.31 2.7896e-13
5595.06 2.7693e-13
5597.8 2.8266e-13
5600.54 2.8356e-13
5603.29 2.852e-13
5606.03 2.9076e-13
5608.78 2.9274e-13
5611.52 2.9715e-13
5614.26 3.0036e-13
5617.01 2.9543e-13
5619.75 2.875e-13
5622.49 2.8842e-13
5625.24 2.861e-13
5627.98 2.871e-13
5630.73 2.9298e-13
5633.47 2.9611e-13
5636.21 2.9497e-13
5638.96 2.9157e-13
5641.7 2.899e-13
5644.45 2.8836e-13
5647.19 2.8932e-13
5649.93 2.9653e-13
5652.68 2.919e-13
5655.42 2.9129e-13
5658.16 2.9065e-13
5660.91 2.8984e-13
5663.65 2.8879e-13
5666.4 2.898e-13
5669.14 2.8818e-13
5671.88 2.9932e-13
5674.63 3.0074e-13
5677.37 2.9755e-13
5680.12 3.0115e-13
5682.86 2.9635e-13
5685.6 2.9595e-13
5688.35 2.9212e-13
5691.09 2.9242e-13
5693.83 2.9487e-13
5696.58 2.9548e-13
5699.32 2.9549e-13
5702.07 2.9561e-13
5704.81 2.8947e-13
5707.55 2.8522e-13
5710.3 2.8266e-13
5713.04 2.8022e-13
5715.79 2.929e-13
5718.53 2.933e-13
5721.27 3.0041e-13
5724.02 3.1003e-13
5726.76 3.1172e-13
5729.5 3.0889e-13
5732.25 3.0062e-13
5734.99 3.0243e-13
5737.74 3.0511e-13
5740.48 3.0301e-13
5743.22 3.0239e-13
5745.97 3.0308e-13
5748.71 2.9813e-13
5751.46 2.9713e-13
5754.2 2.9902e-13
5756.94 3.0176e-13
5759.69 3.0551e-13
5762.43 2.9821e-13
5765.17 3.0493e-13
5767.92 2.9953e-13
5770.66 3.0285e-13
5773.41 3.0765e-13
5776.15 3.0505e-13
5778.89 2.9445e-13
5781.64 2.9101e-13
5784.38 2.8853e-13
5787.13 2.852e-13
5789.87 2.9327e-13
5792.61 3.0234e-13
5795.36 3.0102e-13
5798.1 3.049e-13
5800.84 3.032e-13
5803.59 3.0093e-13
5806.33 3.0291e-13
5809.08 3.0496e-13
5811.82 3.0914e-13
5814.56 2.975e-13
5817.31 3.0059e-13
5820.05 3.0525e-13
5822.8 3.0553e-13
5825.54 3.112e-13
5828.28 3.0481e-13
5831.03 3.1252e-13
5833.77 3.1153e-13
5836.51 3.1107e-13
5839.26 3.1212e-13
5842.0 3.095e-13
5844.75 3.0683e-13
5847.49 2.9861e-13
5850.23 3.0745e-13
5852.98 3.0593e-13
5855.72 2.9922e-13
5858.47 2.9294e-13
5861.21 2.9024e-13
5863.95 2.9703e-13
5866.7 2.9779e-13
5869.44 3.0433e-13
5872.18 3.0313e-13
5874.93 2.999e-13
5877.67 2.953e-13
5880.42 2.9743e-13
5883.16 2.9959e-13
5885.9 2.8138e-13
5888.65 2.6265e-13
5891.39 2.5514e-13
5894.14 2.4573e-13
5896.88 2.4492e-13
5899.62 2.5964e-13
5902.37 2.7526e-13
5905.11 2.8085e-13
5907.85 2.9062e-13
5910.6 3.0149e-13
5913.34 2.8985e-13
5916.09 2.9483e-13
5918.83 2.9554e-13
5921.57 3.0009e-13
5924.32 3.0268e-13
5927.06 2.9201e-13
5929.81 2.9284e-13
5932.55 2.9796e-13
5935.29 3.0093e-13
5938.04 3.0118e-13
5940.78 2.9639e-13
5943.52 2.9996e-13
5946.27 2.9814e-13
5949.01 2.9503e-13
5951.76 2.9548e-13
5954.5 2.9435e-13
5957.24 2.9658e-13
5959.99 2.9716e-13
5962.73 2.9672e-13
5965.48 3.0062e-13
5968.22 2.9672e-13
5970.96 2.9818e-13
5973.71 3.0212e-13
5976.45 3.0106e-13
5979.19 2.958e-13
5981.94 2.9139e-13
5984.68 2.8961e-13
5987.43 2.9418e-13
5990.17 2.9549e-13
5992.91 2.9588e-13
5995.66 2.9789e-13
5998.4 3.0318e-13
6001.15 3.0222e-13
6003.89 2.9445e-13
6006.63 2.9245e-13
6009.38 2.9372e-13
6012.12 2.9306e-13
6014.86 2.9302e-13
6017.61 2.9366e-13
6020.35 2.9612e-13
6023.1 2.9477e-13
6025.84 2.9361e-13
6028.58 2.9542e-13
6031.33 3.0074e-13
6034.07 3.0121e-13
6036.82 2.9972e-13
6039.56 3.0159e-13
6042.3 2.996e-13
6045.05 3.0388e-13
6047.79 3.0519e-13
6050.53 3.016e-13
6053.28 3.0128e-13
6056.02 3.0472e-13
6058.77 2.9746e-13
6061.51 2.9713e-13
6064.25 3.0235e-13
6067.0 3.0124e-13
6069.74 2.9911e-13
6072.49 3.0062e-13
6075.23 3.051e-13
6077.97 3.0584e-13
6080.72 2.9841e-13
6083.46 2.9639e-13
6086.2 2.9459e-13
6088.95 2.9685e-13
6091.69 3.0253e-13
6094.44 2.9254e-13
6097.18 2.9638e-13
6099.92 2.9549e-13
6102.67 2.9909e-13
6105.41 2.9037e-13
6108.16 2.9536e-13
6110.9 2.9484e-13
6113.64 2.964e-13
6116.39 2.9225e-13
6119.13 3.0057e-13
6121.87 2.9148e-13
6124.62 2.9399e-13
6127.36 2.9161e-13
6130.11 2.9795e-13
6132.85 2.873e-13
6135.59 2.8428e-13
6138.34 2.8664e-13
6141.08 2.9176e-13
6143.83 2.9297e-13
6146.57 2.9532e-13
6149.31 2.9704e-13
6152.06 2.9616e-13
6154.8 2.918e-13
6157.54 2.9397e-13
6160.29 2.8411e-13
6163.03 2.7403e-13
6165.78 2.783e-13
6168.52 2.6845e-13
6171.26 2.7306e-13
6174.01 2.793e-13
6176.75 2.8009e-13
6179.5 2.8414e-13
6182.24 2.8832e-13
6184.98 2.8524e-13
6187.73 2.9248e-13
6190.47 2.8616e-13
6193.21 2.8255e-13
6195.96 2.7873e-13
6198.7 2.8114e-13
6201.45 2.8048e-13
6204.19 2.8376e-13
6206.93 2.8807e-13
6209.68 2.8806e-13
6212.42 2.8179e-13
6215.17 2.7883e-13
6217.91 2.8049e-13
6220.65 2.8929e-13
6223.4 2.7542e-13
6226.14 2.7508e-13
6228.88 2.7561e-13
6231.63 2.7299e-13
6234.37 2.723e-13
6237.12 2.7499e-13
6239.86 2.8518e-13
6242.6 2.8211e-13
6245.35 2.806e-13
6248.09 2.7799e-13
6250.84 2.7577e-13
6253.58 2.7569e-13
6256.32 2.7272e-13
6259.07 2.6779e-13
6261.81 2.664e-13
6264.55 2.7412e-13
6267.3 2.7338e-13
6270.04 2.8631e-13
6272.79 2.7899e-13
6275.53 2.7866e-13
6278.27 2.7443e-13
6281.02 2.7837e-13
6283.76 2.7883e-13
6286.51 3.5715e-13
6289.25 3.2675e-13
6291.99 2.8776e-13
6294.74 2.7471e-13
6297.48 2.8065e-13
6300.22 2.8018e-13
6302.97 2.832e-13
6305.71 2.8523e-13
6308.46 2.8974e-13
6311.2 2.9133e-13
6313.94 2.8526e-13
6316.69 2.7682e-13
6319.43 2.8288e-13
6322.18 2.8823e-13
6324.92 2.8442e-13
6327.66 2.9194e-13
6330.41 2.8954e-13
6333.15 2.8528e-13
6335.9 2.901e-13
6338.64 2.8675e-13
6341.38 2.8664e-13
6344.13 2.8861e-13
6346.87 2.9121e-13
6349.61 2.9213e-13
6352.36 2.9001e-13
6355.1 2.8877e-13
6357.85 2.8744e-13
6360.59 2.8176e-13
6363.33 2.9173e-13
6366.08 2.8819e-13
6368.82 2.8394e-13
6371.57 2.9351e-13
6374.31 2.9826e-13
6377.05 2.9432e-13
6379.8 2.8807e-13
6382.54 2.922e-13
6385.28 2.8987e-13
6388.03 3.0009e-13
6390.77 2.96e-13
6393.52 2.9505e-13
6396.26 2.9129e-13
6399.0 2.8445e-13
6401.75 2.8873e-13
6404.49 2.9018e-13
6407.24 2.7984e-13
6409.98 2.9057e-13
6412.72 2.8789e-13
6415.47 2.8608e-13
6418.21 2.8286e-13
6420.95 2.9245e-13
6423.7 2.9166e-13
6426.44 2.915e-13
6429.19 2.9449e-13
6431.93 2.8534e-13
6434.67 2.8956e-13
6437.42 2.8714e-13
6440.16 2.9302e-13
6442.91 2.9679e-13
6445.65 2.9936e-13
6448.39 2.9933e-13
6451.14 2.9167e-13
6453.88 2.9334e-13
6456.62 2.8804e-13
6459.37 2.8834e-13
6462.11 2.8737e-13
6464.86 2.9214e-13
6467.6 2.9058e-13
6470.34 2.9824e-13
6473.09 3.0173e-13
6475.83 3.0161e-13
6478.58 3.0137e-13
6481.32 3.0901e-13
6484.06 3.0605e-13
6486.81 2.9133e-13
6489.55 2.8231e-13
6492.29 2.818e-13
6495.04 2.8076e-13
6497.78 2.7955e-13
6500.53 2.7982e-13
6503.27 2.7882e-13
6506.01 2.8759e-13
6508.76 2.9514e-13
6511.5 2.9303e-13
6514.25 2.9848e-13
6516.99 2.9954e-13
6519.73 2.946e-13
6522.48 2.9398e-13
6525.22 2.957e-13
6527.96 3.034e-13
6530.71 2.9929e-13
6533.45 2.9263e-13
6536.2 3.0127e-13
6538.94 3.0674e-13
6541.68 2.9799e-13
6544.43 2.9373e-13
6547.17 3.0148e-13
6549.92 3.004e-13
6552.66 2.9638e-13
6555.4 2.9082e-13
6558.15 2.8438e-13
6560.89 2.8292e-13
6563.63 2.7805e-13
6566.38 2.7671e-13
6569.12 2.7627e-13
6571.87 2.7954e-13
6574.61 2.8185e-13
6577.35 2.8803e-13
6580.1 2.9613e-13
6582.84 3.0206e-13
6585.59 3.1136e-13
6588.33 3.1993e-13
6591.07 3.0131e-13
6593.82 2.9573e-13
6596.56 2.8197e-13
6599.3 2.8997e-13
6602.05 2.8976e-13
6604.79 2.8916e-13
6607.54 2.9046e-13
6610.28 3.0412e-13
6613.02 2.9463e-13
6615.77 2.984e-13
6618.51 2.9676e-13
6621.26 2.9701e-13
6624.0 2.8938e-13
6626.74 2.9604e-13
6629.49 2.8892e-13
6632.23 2.899e-13
6634.97 2.9219e-13
6637.72 2.9103e-13
6640.46 2.8432e-13
6643.21 2.8787e-13
6645.95 2.8975e-13
6648.69 2.8575e-13
6651.44 2.8756e-13
6654.18 2.9145e-13
6656.93 2.8693e-13
6659.67 2.8308e-13
6662.41 2.8769e-13
6665.16 2.852e-13
6667.9 2.8325e-13
6670.64 2.7887e-13
6673.39 2.7986e-13
6676.13 2.7855e-13
6678.88 2.8013e-13
6681.62 2.8932e-13
6684.36 2.9147e-13
6687.11 2.8905e-13
6689.85 2.8699e-13
6692.6 2.8573e-13
6695.34 2.9014e-13
6698.08 2.8795e-13
6700.83 2.8636e-13
6703.57 2.86e-13
6706.31 2.8325e-13
6709.06 2.8333e-13
6711.8 2.8878e-13
6714.55 2.9168e-13
6717.29 2.8889e-13
6720.03 2.849e-13
6722.78 2.8419e-13
6725.52 2.8543e-13
6728.27 2.8511e-13
6731.01 2.8808e-13
6733.75 2.8925e-13
6736.5 2.8599e-13
6739.24 2.8405e-13
6741.98 2.8245e-13
6744.73 2.8006e-13
6747.47 2.7895e-13
6750.22 2.7734e-13
6752.96 2.7998e-13
6755.7 2.7647e-13
6758.45 2.7353e-13
6761.19 2.7927e-13
6763.94 2.8551e-13
6766.68 2.8075e-13
6769.42 2.7802e-13
6772.17 2.816e-13
6774.91 2.7527e-13
6777.65 2.8119e-13
6780.4 2.8334e-13
6783.14 2.8549e-13
6785.89 2.8066e-13
6788.63 2.8647e-13
6791.37 2.7631e-13
6794.12 2.715e-13
6796.86 2.7671e-13
6799.61 2.8003e-13
6802.35 2.7794e-13
6805.09 2.7937e-13
6807.84 2.7594e-13
6810.58 2.9724e-13
6813.32 3.1307e-13
6823.82 2.8589e-13
6839.55 2.8783e-13
6855.31 2.8713e-13
6871.12 2.7227e-13
6886.96 2.818e-13
6902.83 2.8306e-13
6918.75 2.8498e-13
6934.7 2.7909e-13
6950.68 2.9152e-13
6966.71 2.8947e-13
6982.77 2.8414e-13
6998.86 2.9072e-13
7014.99 2.8603e-13
7031.17 2.7947e-13
7047.38 2.9872e-13
7063.62 2.8132e-13
7079.91 2.8388e-13
7096.23 2.655e-13
7112.58 2.7164e-13
7128.98 2.6911e-13
7145.41 2.6416e-13
7161.88 2.6717e-13
7178.4 2.6836e-13
7194.94 2.4641e-13
7211.53 2.6157e-13
7228.15 2.7134e-13
7244.82 2.7192e-13
7261.52 2.725e-13
7278.26 2.7881e-13
7295.04 2.7179e-13
7311.85 2.8194e-13
7328.71 2.878e-13
7345.6 2.9582e-13
7362.54 2.7539e-13
7379.51 2.9777e-13
7396.52 2.8301e-13
7413.57 2.9494e-13
7430.66 2.8292e-13
7447.79 2.888e-13
7464.96 2.9821e-13
7482.17 2.9272e-13
7499.41 2.9132e-13
7516.7 2.9262e-13
7534.03 3.0008e-13
7551.4 3.042e-13
7568.81 2.9654e-13
7586.26 2.9581e-13
7603.74 2.917e-13
7621.27 2.8964e-13
7638.84 2.8497e-13
7656.45 2.8361e-13
7674.1 2.5041e-13
7691.79 2.777e-13
7709.52 2.538e-13
7727.29 2.7442e-13
7745.11 2.7819e-13
7762.96 2.7307e-13
7780.86 2.6866e-13
7798.79 2.6861e-13
7816.77 2.7042e-13
7834.79 2.7731e-13
7852.85 2.779e-13
7870.96 2.7721e-13
7889.1 2.7211e-13
7907.28 2.7081e-13
7925.52 2.5977e-13
7943.78 2.67e-13
7962.09 2.7191e-13
7980.45 2.7312e-13
7998.85 2.7623e-13
8017.29 2.7365e-13
8035.77 2.6069e-13
8054.29 2.6794e-13
8072.86 2.8182e-13
8091.47 2.7095e-13
8110.12 2.7594e-13
8128.82 2.7716e-13
8147.56 2.7839e-13
8166.34 2.8027e-13
8185.16 2.707e-13
8204.03 2.497e-13
8222.94 2.7374e-13
8241.9 2.6257e-13
8260.9 2.8001e-13
8279.94 2.806e-13
8299.03 2.6486e-13
8318.16 2.6542e-13
8337.34 2.6476e-13
8356.56 2.641e-13
8375.82 2.7522e-13
8395.13 2.568e-13
8414.48 2.7323e-13
8433.88 2.5908e-13
8453.32 2.5844e-13
8472.81 2.5839e-13
8492.34 2.6073e-13
8511.92 2.5067e-13
8531.54 2.6003e-13
8551.21 1.4654e-13
8570.92 2.5933e-13
8590.68 2.575e-13
8610.48 2.5923e-13
8630.33 2.5563e-13
8650.22 2.6153e-13
8670.16 1.6347e-13
8690.15 2.5024e-13
8710.18 2.5309e-13
8730.26 2.6557e-13
8750.39 2.5651e-13
8770.56 2.6486e-13
8790.78 2.642e-13
8811.05 2.6414e-13
8831.36 2.5512e-13
8851.71 2.6222e-13
8872.12 2.3474e-13
8892.57 2.4575e-13
8913.07 2.5084e-13
8933.62 2.4907e-13
8954.21 2.4223e-13
8974.85 2.3289e-13
8995.54 2.2964e-13
9016.28 2.4097e-13
9037.07 2.3926e-13
9057.9 2.6533e-13
9078.78 2.4082e-13
9099.71 2.3692e-13
9120.68 2.5676e-13
9141.71 2.4012e-13
9162.78 2.2199e-13
9183.9 2.1441e-13
9205.08 2.3723e-13
9226.3 2.3285e-13
9247.57 2.3658e-13
9268.88 2.3872e-13
9290.25 2.327e-13
9311.67 2.5102e-13
9333.13 2.5212e-13
9354.64 2.5149e-13
9376.21 2.4685e-13
9397.83 2.5081e-13
9419.49 2.4618e-13
9441.21 2.4955e-13
9462.97 2.5531e-13
9484.78 2.5584e-13
9506.65 2.4939e-13
9528.56 2.5164e-13
9550.53 2.4529e-13
9572.55 2.498e-13
9594.61 2.5439e-13
9616.73 2.5084e-13
9638.9 2.5195e-13
9661.12 2.4786e-13
9683.39 2.5126e-13
9705.71 2.4662e-13
9728.09 2.4374e-13
9750.51 2.4312e-13
9772.99 2.4476e-13
9795.52 2.4079e-13
9818.1 2.4748e-13
9840.73 2.4516e-13
9863.41 2.4454e-13
9886.16 2.4448e-13
9908.94 2.4107e-13
9931.78 2.4381e-13
9954.68 2.4488e-13
9977.63 2.4482e-13
10000.63 2.442e-13
10023.68 2.4471e-13
10069.96 2.418e-13
10116.43 2.4618e-13
10186.55 2.4376e-13
10233.58 2.4533e-13
10280.81 2.4635e-13
10304.51 2.4572e-13
10496.08 2.3693e-13
10691.23 2.2586e-13
10889.99 2.2021e-13
11092.45 2.0837e-13
11298.67 2.0599e-13
11508.72 2.0599e-13
11695.73 2.0084e-13
11913.18 1.9092e-13
12106.75 1.8916e-13
12303.47 1.87e-13
12503.38 1.8065e-13
12706.54 1.7695e-13
12913.01 1.7292e-13
13092.65 1.7015e-13
13305.38 1.6438e-13
13490.48 1.6027e-13
13709.68 1.5734e-13
13900.4 1.5061e-13
14093.78 1.4317e-13
14289.85 1.412e-13
14488.64 1.4251e-13
14690.2 1.3704e-13
14894.54 1.3926e-13
15101.75 1.4023e-13
15311.84 1.4317e-13
15489.14 1.4153e-13
15704.62 1.3894e-13
15886.48 1.3392e-13
16107.48 1.3392e-13
16293.98 1.333e-13
16482.66 1.3178e-13
16711.96 1.3087e-13
16905.48 1.2937e-13
17101.24 1.2672e-13
17299.25 1.2185e-13
17499.57 1.1745e-13
17702.21 1.1216e-13
17907.2 1.0711e-13
18114.54 1.0159e-13
18282.16 9.8819e-14
18493.86 9.5026e-14
18707.99 9.054e-14
18881.1 8.8073e-14
19099.74 8.6664e-14
19320.91 8.3915e-14
19499.67 8.0694e-14
19680.11 7.7775e-14
19908.0 7.5135e-14
20092.19 7.3933e-14
20278.11 7.1423e-14
20512.93 7.0606e-14
20702.72 6.8999e-14
20894.28 6.7428e-14
21087.6 6.635e-14
21282.73 6.4989e-14
21479.67 6.3803e-14
21678.4 6.1637e-14
21879.0 6.0651e-14
22081.43 5.8727e-14
22285.76 5.7127e-14
22491.97 5.5827e-14
22700.07 5.4305e-14
22910.13 4.8511e-14
23122.09 4.7845e-14
23282.38 4.1672e-14
23497.82 3.916e-14
23715.23 3.9613e-14
23879.63 3.6294e-14
24100.57 3.4901e-14
24323.58 3.4264e-14
24492.17 3.1611e-14
24718.8 3.0892e-14
24890.13 2.5754e-14
25120.45 2.5226e-14
25294.56 2.5342e-14
25528.62 2.511e-14
25705.57 2.5518e-14
25883.76 2.511e-14
26123.28 2.5052e-14
26304.34 2.4369e-14
26486.66 2.409e-14
26670.27 2.365e-14
26917.06 2.3272e-14
27103.63 2.29e-14
27291.49 2.2379e-14
27480.68 2.2021e-14
27671.15 2.152e-14
27927.2 2.1225e-14
28120.77 2.0789e-14
28315.71 2.0457e-14
28511.97 2.0037e-14
28709.63 1.9626e-14
28908.62 1.9313e-14
29109.02 1.896e-14
29310.78 1.8529e-14
29513.97 1.819e-14
29718.53 1.7899e-14
29924.55 1.7532e-14
30131.96 1.7252e-14
30271.03 1.6937e-14
30480.88 1.6743e-14
30692.15 1.6552e-14
30904.92 1.6287e-14
31119.12 1.6064e-14
31334.85 1.588e-14
31479.47 1.5626e-14
31697.66 1.5411e-14
31917.4 1.5235e-14
32064.71 1.5026e-14
32287.0 1.482e-14
32510.78 1.465e-14
32736.12 1.4549e-14
32887.25 1.4516e-14
33115.19 1.435e-14
33268.04 1.3862e-14
33498.66 1.3578e-14
33730.84 1.333e-14
33886.57 1.3087e-14
34121.44 1.2819e-14
34278.92 1.2643e-14
34516.56 1.2412e-14
34675.86 1.2185e-14
34916.25 1.1991e-14
35077.4 1.1772e-14
35320.53 1.1557e-14
35483.59 1.1346e-14
35729.53 1.1139e-14
35894.48 1.0936e-14
36060.15 1.0761e-14
36310.08 1.0564e-14
36477.71 1.0348e-14
36730.54 1.0159e-14
36900.07 9.9504e-15
37070.43 9.7688e-15
37327.37 9.6126e-15
37499.65 9.3938e-15
37672.77 9.2649e-15
37933.89 9.0958e-15
38108.97 8.9298e-15
38284.9 8.787e-15
38461.6 8.6266e-15
38728.23 8.4497e-15
38906.98 8.2955e-15
39086.55 8.1628e-15
39266.95 8.0138e-15
39539.16 7.8314e-15
39721.65 7.7062e-15
39905.03 7.5308e-15
40089.21 7.4104e-15
40274.24 7.2919e-15
40460.12 7.1423e-15
40740.6 7.0281e-15
40928.64 6.8999e-15
41117.54 6.7895e-15
41307.37 6.681e-15
41498.02 6.559e-15
41689.55 6.4542e-15
41882.01 6.3364e-15
42075.32 6.2207e-15
42269.51 6.1495e-15
42464.65 6.0373e-15
42660.65 5.9544e-15
42857.55 5.7127e-15
43055.4 5.4556e-15
43254.12 5.443e-15
43453.76 5.2341e-15
43654.32 5.1149e-15
43855.85 5.0216e-15
44058.26 4.8623e-15
44261.61 4.7735e-15
44465.95 4.6972e-15
44671.18 4.5903e-15
44877.36 4.5482e-15
45084.54 4.4652e-15
45292.62 4.3837e-15
45501.67 4.3335e-15
45711.68 4.2741e-15
45922.71 4.1576e-15
46134.66 4.148e-15
46347.6 4.0817e-15
46454.48 4.0257e-15
46668.89 3.998e-15
46884.29 3.925e-15
47100.68 3.8712e-15
47318.12 3.8534e-15
47536.52 3.7743e-15
47646.1 3.7311e-15
47866.06 3.6884e-15
48086.98 3.6128e-15
48308.92 3.6128e-15
48531.89 3.5387e-15
48755.94 3.4821e-15
48868.32 3.4343e-15
49093.88 3.3794e-15
49320.47 3.3561e-15
49548.16 3.2949e-15
49662.37 3.2797e-15
49891.58 3.2123e-15
50121.91 3.1652e-15
50353.24 3.1187e-15
50469.31 3.0567e-15
50702.25 3.0186e-15
50819.13 2.9928e-15
50936.32 2.9672e-15
51053.73 2.9418e-15
51171.42 2.9098e-15
51289.37 2.8849e-15
51407.6 2.8601e-15
51526.1 2.8356e-15
51644.92 2.8112e-15
51763.97 2.7934e-15
51883.29 2.763e-15
52002.88 2.7392e-15
52122.75 2.7156e-15
52242.9 2.686e-15
52363.32 2.6628e-15
52484.08 2.6397e-15
52605.06 2.629e-15
52726.32 2.6122e-15
52847.85 2.5836e-15
52969.68 2.5495e-15
53091.77 2.5273e-15
53214.21 2.5111e-15
53336.88 2.4951e-15
53459.82 2.4733e-15
53583.05 2.4462e-15
53706.56 2.4304e-15
53830.36 2.4092e-15
53954.44 2.3882e-15
54078.87 2.3727e-15
54203.53 2.3466e-15
54328.47 2.3207e-15
54453.7 2.3056e-15
54579.22 2.2907e-15
54705.03 2.2653e-15
54831.13 2.2403e-15
54957.58 2.2206e-15
55084.26 2.201e-15
55211.23 2.1866e-15
55338.5 2.1774e-15
55466.06 2.1482e-15
55593.91 2.1292e-15
55722.12 2.1153e-15
55850.56 2.0965e-15
55979.3 2.078e-15
56108.34 2.0643e-15
56237.67 2.0412e-15
56367.3 2.0231e-15
56497.24 2.0097e-15
56627.53 1.9964e-15
56758.06 1.9786e-15
56888.89 1.9609e-15
57020.02 1.9434e-15
57151.46 1.9349e-15
57283.19 1.9176e-15
57415.3 1.9048e-15
57547.65 1.8921e-15
57680.3 1.8751e-15
57813.25 1.8625e-15
57946.52 1.8543e-15
58080.09 1.8376e-15
58213.97 1.821e-15
58348.22 1.8129e-15
58482.71 1.8007e-15
58617.52 1.7885e-15
58752.64 1.7764e-15
58888.07 1.7684e-15
59112.42 1.9882e-15
59421.59 1.8164e-15
59730.74 1.7531e-15
60039.9 1.9658e-15
60349.07 1.6806e-15
60658.22 1.8354e-15
60967.38 1.7531e-15
61276.55 2.0717e-15
61585.71 2.4354e-15
61894.86 2.3128e-15
62204.03 2.325e-15
62513.19 2.0601e-15
62822.34 2.2042e-15
63131.51 1.7838e-15
63440.67 1.9132e-15
63749.83 1.7888e-15
64058.99 1.7396e-15
64368.14 1.8752e-15
64677.31 1.5531e-15
64986.47 1.4936e-15
65295.63 1.6891e-15
65604.8 1.519e-15
65913.95 1.3654e-15
66223.11 1.3183e-15
66532.28 1.5995e-15
66841.43 1.3905e-15
67150.59 1.4868e-15
67459.76 1.5318e-15
67768.91 1.5006e-15
68078.08 1.5555e-15
68387.24 1.6511e-15
68696.4 1.6049e-15
69005.56 1.5962e-15
69314.71 1.4339e-15
69623.88 1.4563e-15
69933.04 1.4531e-15
70242.2 1.3167e-15
70551.36 1.5111e-15
70860.52 1.4559e-15
71169.68 1.4784e-15
71478.85 1.3924e-15
71788.0 1.3375e-15
72097.17 1.3324e-15
72406.32 1.4801e-15
72715.48 1.3799e-15
73024.65 1.4712e-15
73333.8 1.457e-15
73642.96 1.6865e-15
73952.13 1.4772e-15
74261.29 1.5769e-15
74570.45 1.6075e-15
74879.6 1.5831e-15
75168.53 1.6689e-15
75188.77 1.9218e-15
75497.94 2.1997e-15
75788.08 2.0201e-15
75807.09 2.0415e-15
76407.63 1.997e-15
77027.18 1.9529e-15
77646.74 1.8987e-15
78266.28 1.7663e-15
78885.85 1.815e-15
79505.4 1.5817e-15
80124.95 1.4943e-15
80744.51 1.305e-15
81364.06 1.1398e-15
81983.61 1.1498e-15
82603.16 1.1799e-15
83222.71 1.1482e-15
83842.28 1.0364e-15
84461.82 1.0854e-15
85081.38 1.0399e-15
85700.93 9.87e-16
86320.49 1.0445e-15
86940.03 9.7356e-16
87559.59 8.7247e-16
88179.15 7.4567e-16
88798.69 6.1962e-16
89418.24 6.3192e-16
90037.8 6.0094e-16
90657.35 5.9317e-16
91276.91 5.2624e-16
91896.46 5.5218e-16
92516.02 5.9617e-16
93135.57 5.0321e-16
93755.12 5.9023e-16
94374.67 5.1862e-16
94994.22 4.9957e-16
95613.78 4.5723e-16
96233.33 5.5759e-16
96852.88 5.4818e-16
97472.44 4.6302e-16
98092.0 4.3087e-16
98711.55 4.7534e-16
99331.1 4.3681e-16
99950.61 4.3208e-16
100570.22 4.2713e-16
101189.73 4.2835e-16
101809.35 4.423e-16
102428.85 3.9102e-16
103048.46 3.9372e-16
103667.98 4.1314e-16
104287.49 4.338e-16
104907.1 4.206e-16
105526.6 4.1916e-16
106146.22 4.6603e-16
106765.73 4.8572e-16
107385.24 4.548e-16
108004.85 4.5217e-16
108624.37 4.1425e-16
109243.97 4.8541e-16
109863.48 4.7155e-16
110483.09 5.5649e-16
111102.61 6.7957e-16
111722.12 9.9752e-16
112341.73 1.2791e-15
112961.24 1.2493e-15
113580.85 1.0981e-15
114200.36 8.683e-16
114819.97 8.1248e-16
115439.48 7.2262e-16
116058.99 6.3709e-16
116678.61 5.7619e-16
117298.12 5.7511e-16
117917.72 5.2883e-16
118537.23 5.7824e-16
119156.85 5.9854e-16
119776.36 6.1998e-16
120395.87 5.9409e-16
121015.49 5.8401e-16
121635.0 5.4333e-16
122254.6 5.755e-16
122874.11 6.3814e-16
123493.64 6.0449e-16
124113.24 6.0621e-16
124732.75 6.5801e-16
125352.36 7.0061e-16
125971.88 6.7836e-16
126591.48 6.9232e-16
127211.0 6.9558e-16
127830.51 7.4327e-16
128450.12 6.8212e-16
129069.63 5.3e-16
129689.24 4.3835e-16
130308.75 4.4101e-16
130928.26 4.3847e-16
131547.87 4.2963e-16
132167.38 4.1721e-16
132786.99 4.3437e-16
133406.5 3.8944e-16
134026.11 4.2055e-16
134645.62 3.67e-16
135265.14 3.6376e-16
135884.75 3.807e-16
136504.25 3.6465e-16
137123.87 3.267e-16
137743.38 3.1502e-16
138362.99 3.3954e-16
138982.49 3.5438e-16
139602.01 3.3031e-16
140221.62 3.136e-16
140841.14 3.2405e-16
141460.74 3.1556e-16
142080.25 3.2172e-16
142699.86 3.0267e-16
143319.38 2.9976e-16
143938.88 2.5865e-16
144558.51 2.5487e-16
145091.61 2.8378e-16
146006.45 2.7099e-16
146921.4 2.5701e-16
147836.25 2.7514e-16
148751.09 2.5619e-16
149665.95 2.5093e-16
150580.9 2.415e-16
151495.75 2.4149e-16
152410.59 2.4626e-16
153325.54 2.4328e-16
154240.4 2.3307e-16
155155.24 2.931e-16
156070.09 3.0081e-16
156985.04 2.5107e-16
157899.89 2.3936e-16
158814.73 2.4118e-16
159729.68 2.5037e-16
160644.54 2.4558e-16
161559.38 2.502e-16
162474.33 2.5567e-16
163389.18 2.8025e-16
164304.02 3.211e-16
165218.88 3.1312e-16
166133.84 2.9898e-16
167048.66 3.0028e-16
167963.52 3.1665e-16
168878.37 3.2523e-16
169793.32 4.065e-16
170708.18 4.3966e-16
171623.03 3.4629e-16
172537.98 2.9872e-16
173452.82 2.9514e-16
174367.68 2.6837e-16
175282.63 2.4231e-16
176197.47 2.3338e-16
177112.32 2.2699e-16
178027.16 2.2402e-16
178942.11 2.133e-16
179856.96 2.0181e-16
180771.8 1.8455e-16
181686.75 1.6548e-16
182601.61 1.648e-16
183516.45 1.7146e-16
184431.4 1.7776e-16
185346.25 1.7777e-16
186261.11 1.8221e-16
187175.95 2.0935e-16
188090.89 1.9498e-16
189005.75 1.7821e-16
189920.59 1.5326e-16
190835.55 1.6581e-16
191750.41 1.6671e-16
192665.23 1.602e-16
193580.09 1.4386e-16
194495.05 1.4839e-16
195409.89 1.6209e-16
196324.75 1.2552e-16
197239.69 1.5246e-16
198154.53 1.323e-16
199069.39 1.1801e-16
199984.24 1.331e-16
200899.19 1.3875e-16
201814.03 1.2672e-16
202728.89 1.257e-16
203643.84 1.3409e-16
204741.47 1.2099e-16
206502.83 1.2825e-16
208265.27 1.1957e-16
210028.62 1.1637e-16
211793.05 1.214e-16
213558.5 1.1568e-16
215325.04 1.1369e-16
217092.47 1.1093e-16
218861.0 1.151e-16
220630.55 1.0787e-16
222401.17 1.0785e-16
224172.81 1.1012e-16
225945.43 1.1259e-16
227719.14 1.1256e-16
229493.87 1.0851e-16
231269.59 1.0465e-16
233046.4 1.0229e-16
234824.23 1.0702e-16
236603.13 1.0924e-16
238383.14 1.1213e-16
240164.15 1.0769e-16
241946.15 1.0629e-16
243729.26 1.0355e-16
245513.36 1.0579e-16
247298.67 1.0017e-16
249084.86 1.0295e-16
250872.14 1.0438e-16
252660.54 1.0633e-16
254450.02 1.0407e-16
256240.51 1.0746e-16
258032.09 1.1738e-16
259824.77 1.2741e-16
261618.54 1.1128e-16
263413.33 1.0047e-16
265209.18 1.0396e-16
267006.18 1.0173e-16
268804.12 1.004e-16
270603.31 9.9794e-17
272403.46 9.923e-17
274204.73 1.0083e-16
276007.1 9.9249e-17
277810.55 9.5209e-17
279615.1 1.0225e-16
281420.74 1.1423e-16
283227.5 1.131e-16
285035.36 1.0411e-16
286844.3 9.8284e-17
288654.34 1.0291e-16
290465.46 9.9972e-17
292277.71 9.8892e-17
294091.05 1.0148e-16
295905.49 1.0689e-16
297721.1 1.0051e-16
299537.84 1.0517e-16
301355.55 1.0433e-16
303174.47 1.0873e-16
304994.48 1.0611e-16
306815.71 1.1006e-16
308637.94 1.1213e-16
310461.35 1.0871e-16
312285.95 1.0774e-16
314111.57 1.0589e-16
315938.38 1.0857e-16
317766.35 1.1024e-16
319595.34 1.1035e-16
321425.55 1.0876e-16
323256.98 1.1857e-16
325089.43 1.1663e-16
326923.01 1.2526e-16
328757.83 1.1976e-16
330593.81 1.1854e-16
332430.88 1.3052e-16
334269.07 1.5352e-16
336108.44 1.5745e-16
337949.04 1.2783e-16
339790.78 1.2378e-16
341633.65 1.1489e-16
343477.64 1.1272e-16
345322.88 1.3537e-16
347169.27 1.9841e-16
349016.82 2.5178e-16
