# col1 col2
# An Atlas of Galaxy Spectral Energy Distributions from the Ultraviolet to the Mid-Infrared
# Brown et al. (2014)
# http://dx.doi.org/10.5072/03/529D3551F0117
# 
# Column 1 : Restframe Wavelength (Angstrom)
# Column 2 : Flux per unit wavelength (ergs/s/cm^2/Angstrom)
# Column 3 : Observed wavelength (Angstrom)
# Column 4 : Source (0 = model, 1 = Optical Spectrum, 2 = Akari, 3 = Spitzer IRS)
# 
100.11 2.7259e-24
101.98 4.2506e-24
104.11 6.0033e-24
106.05 8.6166e-24
108.02 1.2568e-23
110.03 2.0475e-23
113.89 3.7679e-23
117.9 6.4415e-23
120.92 2.8767e-22
124.88 4.4543e-22
126.91 5.3545e-22
128.08 5.9661e-22
131.07 7.6665e-22
131.98 9.5405e-22
134.12 1.113e-21
136.93 1.6197e-21
140.12 2.0199e-21
143.05 6.4751e-21
147.06 1.9549e-20
150.83 2.4492e-20
155.06 3.0824e-20
159.04 3.8795e-20
161.99 4.5571e-20
166.15 5.6959e-20
170.02 6.8937e-20
173.18 7.9865e-20
176.81 9.5555e-20
180.09 1.0893e-19
182.18 1.1888e-19
185.99 1.4027e-19
191.2 1.7093e-19
193.86 1.9353e-19
197.92 2.2317e-19
202.07 2.5853e-19
204.88 2.8736e-19
210.13 3.2454e-19
216.02 4.1124e-19
220.04 4.6771e-19
223.1 5.0452e-19
227.25 5.7248e-19
229.88 9.3472e-19
234.15 1.6579e-18
240.16 2.2929e-18
245.75 2.389e-18
252.06 2.7991e-18
256.74 2.5345e-18
259.71 3.0747e-18
263.93 3.4093e-18
268.84 3.652e-18
273.84 3.8849e-18
278.93 4.1421e-18
284.12 4.3961e-18
290.07 4.4967e-18
296.14 4.8946e-18
300.95 5.1e-18
307.96 5.5509e-18
318.05 6.2382e-18
327.72 6.8198e-18
337.67 7.3532e-18
347.93 7.8735e-18
356.86 8.3734e-18
366.01 8.9873e-18
375.4 9.4265e-18
385.03 9.6175e-18
394.91 1.0514e-17
405.04 1.1206e-17
414.47 1.1593e-17
422.18 1.1829e-17
430.03 1.2126e-17
441.06 1.2776e-17
451.33 1.3094e-17
459.72 1.3299e-17
470.43 1.3661e-17
480.28 1.423e-17
490.34 1.4187e-17
499.46 1.4915e-17
506.4 1.4703e-17
512.27 1.5967e-17
520.59 1.618e-17
530.27 1.6281e-17
540.13 1.5973e-17
550.17 1.6296e-17
560.4 1.725e-17
569.5 1.8134e-17
580.09 1.8121e-17
589.52 1.8746e-17
600.48 1.8305e-17
610.23 1.6993e-17
620.15 1.9951e-17
630.23 2.0075e-17
640.47 2.067e-17
649.38 2.1042e-17
658.41 2.1077e-17
664.5 2.1959e-17
675.3 2.2299e-17
684.69 2.1577e-17
694.22 2.3862e-17
705.5 2.2718e-17
715.31 2.5122e-17
725.26 2.5631e-17
735.35 2.6149e-17
745.58 2.7235e-17
754.22 2.8046e-17
764.71 2.7199e-17
775.35 3.0076e-17
784.33 3.0616e-17
795.24 3.1887e-17
804.45 3.2986e-17
815.64 3.3805e-17
825.08 3.5784e-17
834.63 3.0718e-17
844.3 3.6991e-17
854.08 3.7653e-17
865.96 3.985e-17
875.98 4.1987e-17
884.09 4.4861e-17
894.33 4.6833e-17
904.68 4.6369e-17
915.16 6.9969e-17
925.76 4.535e-16
934.32 9.9382e-16
945.14 1.9587e-15
956.08 2.9487e-15
964.93 3.0364e-15
976.1 4.2954e-16
985.14 2.1514e-15
994.25 2.6329e-15
1005.76 4.4986e-15
1015.07 4.5687e-15
1024.46 2.0394e-15
1033.94 2.8721e-15
1045.92 6.454e-15
1055.59 6.4051e-15
1065.36 4.6155e-15
1075.22 5.8872e-15
1085.17 4.252e-15
1095.21 6.431e-15
1105.34 6.2081e-15
1115.57 5.7762e-15
1125.89 5.097e-15
1133.7 7.2122e-15
1144.19 6.4526e-15
1154.77 7.1516e-15
1165.46 7.3972e-15
1176.24 4.6852e-15
1184.4 7.2689e-15
1195.35 4.3463e-15
1203.64 2.7724e-15
1214.78 2.3416e-15
1226.02 5.0136e-15
1234.52 8.373e-15
1245.94 9.3222e-15
1254.57 8.6945e-15
1266.18 7.1759e-15
1274.96 1.013e-14
1283.8 1.0872e-14
1295.68 7.7079e-15
1304.66 7.6146e-15
1313.7 1.0553e-14
1325.86 1.0022e-14
1335.05 8.3498e-15
1344.3 1.0974e-14
1353.62 1.0595e-14
1366.14 9.0925e-15
1375.61 9.8487e-15
1385.15 1.0002e-14
1394.75 8.6251e-15
1404.42 9.0251e-15
1414.15 9.1231e-15
1423.96 9.6566e-15
1433.83 9.5391e-15
1440.44 1.0287e-14
1447.09 1.0595e-14
1453.77 1.0183e-14
1463.85 9.1736e-15
1474.0 9.2515e-15
1484.21 9.6135e-15
1494.5 9.8981e-15
1504.86 9.2091e-15
1511.81 7.9066e-15
1515.29 8.7474e-15
1525.8 8.3471e-15
1536.37 6.9854e-15
1543.46 8.1089e-15
1554.16 7.6141e-15
1564.94 7.7138e-15
1575.78 8.3352e-15
1586.71 8.9652e-15
1594.03 9.169e-15
1605.08 9.0774e-15
1616.21 9.2172e-15
1623.67 8.5774e-15
1634.92 9.3323e-15
1646.25 9.5195e-15
1653.85 8.657e-15
1665.32 9.6826e-15
1673.0 8.2935e-15
1676.86 9.7188e-15
1684.6 1.0408e-14
1696.28 9.66e-15
1704.11 9.1986e-15
1715.92 8.5572e-15
1723.84 8.5521e-15
1735.79 9.3042e-15
1743.8 9.0869e-15
1755.89 9.9315e-15
1763.99 8.9074e-15
1776.22 9.1695e-15
1784.42 9.4422e-15
1796.79 1.0343e-14
1805.08 1.0289e-14
1813.41 9.2495e-15
1825.98 9.5653e-15
1834.41 9.108e-15
1842.88 8.244e-15
1855.65 8.1982e-15
1864.22 8.5789e-15
1877.14 9.6162e-15
1885.8 8.6839e-15
1894.51 8.3258e-15
1903.25 8.9564e-15
1916.45 8.525e-15
1925.29 8.4217e-15
1934.18 8.7317e-15
1943.11 9.158e-15
1956.58 8.5183e-15
1965.61 9.6172e-15
1974.68 9.9254e-15
1983.79 9.3205e-15
1992.95 9.0185e-15
2006.76 9.3901e-15
2016.03 8.9404e-15
2025.33 9.507e-15
2034.68 8.9275e-15
2044.07 9.4279e-15
2053.51 8.9556e-15
2062.99 8.9491e-15
2072.51 9.7601e-15
2077.29 9.3389e-15
2086.87 9.8621e-15
2096.51 9.2607e-15
2106.19 9.2751e-15
2115.91 9.4187e-15
2125.67 9.5644e-15
2135.48 8.7162e-15
2145.34 9.1199e-15
2155.24 9.5643e-15
2165.19 9.19e-15
2175.19 9.1196e-15
2185.23 8.9874e-15
2195.31 9.4906e-15
2205.45 9.1822e-15
2215.63 8.5822e-15
2225.85 8.2842e-15
2236.13 9.097e-15
2246.45 8.6222e-15
2256.82 8.0867e-15
2267.23 8.3558e-15
2272.46 8.6918e-15
2282.95 9.0645e-15
2293.49 8.4837e-15
2304.07 8.5472e-15
2314.71 7.9811e-15
2325.39 5.8519e-15
2336.13 7.1869e-15
2346.91 6.9148e-15
2352.32 7.7606e-15
2363.18 6.8887e-15
2374.09 7.2174e-15
2385.04 6.5557e-15
2396.05 7.1591e-15
2407.11 6.8093e-15
2412.66 7.0994e-15
2423.8 7.8066e-15
2434.99 7.4938e-15
2446.23 8.0899e-15
2457.52 8.0202e-15
2463.18 7.876e-15
2474.55 7.5258e-15
2485.97 7.6523e-15
2497.45 7.2617e-15
2503.21 8.359e-15
2514.76 7.0534e-15
2520.56 7.2531e-15
2526.37 6.9126e-15
2532.19 7.1906e-15
2543.88 7.0471e-15
2555.62 7.9479e-15
2567.42 7.5421e-15
2573.34 8.1774e-15
2585.21 7.9958e-15
2597.15 7.8182e-15
2603.13 7.4684e-15
2615.15 7.3362e-15
2627.22 7.8834e-15
2633.28 8.5475e-15
2645.43 9.6846e-15
2657.64 1.0335e-14
2663.77 8.7187e-15
2676.06 9.369e-15
2682.23 9.4584e-15
2694.61 8.7915e-15
2707.05 9.3177e-15
2713.29 8.5198e-15
2725.82 8.369e-15
2732.1 8.9908e-15
2744.71 7.2785e-15
2757.38 7.6258e-15
2763.74 8.1547e-15
2776.49 8.6627e-15
2782.89 7.8303e-15
2795.74 5.9844e-15
2802.18 6.5335e-15
2815.12 8.5191e-15
2828.11 9.4981e-15
2834.63 9.1571e-15
2847.71 8.7499e-15
2854.28 8.0191e-15
2867.45 9.7358e-15
2874.07 1.0104e-14
2887.33 9.8343e-15
2893.99 9.9739e-15
2907.34 1.1484e-14
2927.5 1.0801e-14
2947.79 1.0564e-14
2968.22 1.1046e-14
2988.8 1.1107e-14
3009.52 1.1427e-14
3030.38 1.1516e-14
3051.38 1.1606e-14
3072.53 1.1859e-14
3086.71 1.2086e-14
3108.11 1.2321e-14
3129.66 1.2079e-14
3151.35 1.2173e-14
3173.19 1.2409e-14
3187.84 1.1455e-14
3209.94 1.2256e-14
3232.19 1.1213e-14
3247.11 1.2792e-14
3269.61 1.3719e-14
3292.28 1.3573e-14
3307.47 1.3518e-14
3322.74 1.3309e-14
3330.4 1.3908e-14
3338.08 1.2983e-14
3345.77 1.3474e-14
3353.49 1.2872e-14
3361.22 1.3145e-14
3368.97 1.3239e-14
3376.73 1.2246e-14
3384.52 1.2592e-14
3392.32 1.4068e-14
3400.14 1.4905e-14
3407.98 1.3598e-14
3415.83 1.3759e-14
3423.71 1.4986e-14
3431.6 1.4717e-14
3439.51 1.4586e-14
3447.44 1.2361e-14
3455.39 1.362e-14
3463.35 1.2482e-14
3471.34 1.4074e-14
3479.34 1.232e-14
3487.36 1.3365e-14
3495.4 1.3253e-14
3503.46 1.4543e-14
3511.53 1.4158e-14
3519.63 1.4301e-14
3527.74 1.2874e-14
3535.87 1.439e-14
3544.02 1.5574e-14
3552.19 1.5551e-14
3560.38 1.521e-14
3568.59 1.3661e-14
3576.81 1.3269e-14
3585.06 1.2083e-14
3585.82 1.344e-14
3588.5 1.4889e-14
3591.19 1.1909e-14
3593.87 6.3918e-15
3596.56 1.5062e-14
3599.24 1.9664e-14
3601.92 1.1186e-14
3604.61 1.4254e-14
3607.29 8.1862e-15
3609.98 1.1993e-14
3612.66 1.6672e-14
3615.35 1.3213e-14
3618.03 1.7574e-14
3620.71 1.3811e-14
3623.4 1.2221e-14
3626.08 1.1453e-14
3628.77 1.4955e-14
3631.45 1.7297e-14
3634.14 1.591e-14
3636.82 1.4839e-14
3639.51 1.6984e-14
3642.19 1.4643e-14
3644.87 1.9958e-14
3647.56 1.7241e-14
3650.24 1.535e-14
3652.93 1.4495e-14
3655.61 1.2738e-14
3658.3 1.3541e-14
3660.98 1.9539e-14
3663.66 1.2859e-14
3666.35 1.8831e-14
3669.03 1.5799e-14
3671.72 1.3245e-14
3674.4 2.0397e-14
3677.09 1.4139e-14
3679.77 1.2727e-14
3682.45 1.3208e-14
3685.14 1.262e-14
3687.82 1.6105e-14
3690.51 1.5981e-14
3693.19 1.2244e-14
3695.88 1.3814e-14
3698.56 1.5259e-14
3701.24 1.4685e-14
3703.93 1.3998e-14
3706.61 2.1307e-14
3709.3 1.8925e-14
3711.98 1.9927e-14
3714.67 2.0238e-14
3717.35 2.9173e-14
3720.03 3.3352e-14
3722.72 4.5955e-14
3725.4 6.1845e-14
3728.09 6.7036e-14
3730.77 6.3919e-14
3733.46 5.1367e-14
3736.14 3.6153e-14
3738.82 2.8707e-14
3741.51 1.675e-14
3744.19 1.9288e-14
3746.88 1.5417e-14
3749.56 1.4324e-14
3752.25 1.2307e-14
3754.93 1.4299e-14
3757.61 1.618e-14
3760.3 1.2847e-14
3762.98 1.4165e-14
3765.67 1.4717e-14
3768.35 2.0414e-14
3771.04 1.7669e-14
3773.72 1.5949e-14
3776.4 2.0218e-14
3779.09 2.1764e-14
3781.77 2.2164e-14
3784.46 2.0099e-14
3787.14 1.9562e-14
3789.83 1.7269e-14
3792.51 1.7585e-14
3795.19 1.4371e-14
3797.88 1.6701e-14
3800.56 1.681e-14
3803.25 1.6307e-14
3805.93 2.052e-14
3808.62 2.1028e-14
3811.3 1.9916e-14
3813.98 1.9251e-14
3816.67 1.8258e-14
3819.35 1.9402e-14
3822.04 1.8522e-14
3824.72 1.8629e-14
3827.41 1.4319e-14
3830.09 1.4071e-14
3832.77 1.4459e-14
3835.46 1.535e-14
3838.14 1.256e-14
3840.83 1.7924e-14
3843.51 1.7938e-14
3846.2 2.0152e-14
3848.88 1.9778e-14
3851.56 2.1104e-14
3854.25 2.0947e-14
3856.93 2.0751e-14
3859.62 1.9706e-14
3862.3 1.9823e-14
3864.99 2.5039e-14
3867.67 2.4194e-14
3870.35 2.6014e-14
3873.04 2.4709e-14
3875.72 2.2506e-14
3878.41 2.0081e-14
3881.09 1.6843e-14
3883.78 1.5237e-14
3886.46 1.6787e-14
3889.14 1.6653e-14
3891.83 1.7691e-14
3894.51 1.7055e-14
3897.2 2.0032e-14
3899.88 2.449e-14
3902.57 2.131e-14
3905.25 2.2135e-14
3907.93 1.9252e-14
3910.62 2.178e-14
3913.3 2.3897e-14
3915.99 2.3077e-14
3918.67 2.2639e-14
3921.36 2.3737e-14
3924.04 2.2813e-14
3926.72 1.9927e-14
3929.41 1.8286e-14
3932.09 1.4813e-14
3934.78 1.5514e-14
3937.46 1.8057e-14
3940.15 1.7582e-14
3942.83 2.0144e-14
3945.51 2.1458e-14
3948.2 2.1641e-14
3950.88 2.3315e-14
3953.57 2.1912e-14
3956.25 2.0238e-14
3958.94 1.8134e-14
3961.62 2.0195e-14
3964.3 1.648e-14
3966.99 1.3364e-14
3969.67 1.5044e-14
3972.36 1.5969e-14
3975.04 2.0035e-14
3977.73 2.1176e-14
3980.41 2.0815e-14
3983.09 2.3902e-14
3985.78 2.5229e-14
3988.46 2.6354e-14
3991.15 2.5374e-14
3993.83 2.4991e-14
3996.52 2.4447e-14
3999.2 2.6909e-14
4001.88 2.7262e-14
4004.57 2.8991e-14
4007.25 2.7534e-14
4009.94 2.9139e-14
4012.62 2.625e-14
4015.31 2.7687e-14
4017.99 2.6672e-14
4020.67 2.6803e-14
4023.36 2.8217e-14
4026.04 2.8847e-14
4028.73 2.9497e-14
4031.41 2.6285e-14
4034.1 2.502e-14
4036.78 2.5481e-14
4039.46 2.7202e-14
4042.15 2.7079e-14
4044.83 2.5969e-14
4047.52 2.6804e-14
4050.2 2.9475e-14
4052.89 2.6881e-14
4055.57 2.6481e-14
4058.25 2.4907e-14
4060.94 2.683e-14
4063.62 2.49e-14
4066.31 2.6579e-14
4068.99 2.6553e-14
4071.68 2.6302e-14
4074.36 2.4964e-14
4077.04 2.2619e-14
4079.73 2.4786e-14
4082.41 2.5958e-14
4085.1 2.59e-14
4087.78 2.6552e-14
4090.47 2.2893e-14
4093.15 2.3019e-14
4095.83 2.277e-14
4098.52 2.1519e-14
4101.2 2.1075e-14
4103.89 2.0425e-14
4106.57 2.1742e-14
4109.26 2.3345e-14
4111.94 2.4682e-14
4114.62 2.4933e-14
4117.31 2.7339e-14
4119.99 2.4497e-14
4122.68 2.5436e-14
4125.36 2.528e-14
4128.05 2.3183e-14
4130.73 2.5718e-14
4133.41 2.6214e-14
4136.1 2.6507e-14
4138.78 2.6773e-14
4141.47 2.5273e-14
4144.15 2.7715e-14
4146.84 2.7663e-14
4149.52 2.6506e-14
4152.2 2.609e-14
4154.89 2.6485e-14
4157.57 2.485e-14
4160.26 2.6758e-14
4162.94 2.6911e-14
4165.63 2.5538e-14
4168.31 2.5445e-14
4170.99 2.5012e-14
4173.68 2.2903e-14
4176.36 2.376e-14
4179.05 2.4162e-14
4181.73 2.3727e-14
4184.42 2.4838e-14
4187.1 2.7813e-14
4189.78 2.6124e-14
4192.47 2.4736e-14
4195.15 2.4225e-14
4197.84 2.3918e-14
4200.52 2.5563e-14
4203.21 2.7489e-14
4205.89 2.6173e-14
4208.57 2.4703e-14
4211.26 2.5496e-14
4213.94 2.3687e-14
4216.63 2.6095e-14
4219.31 2.61e-14
4222.0 2.4419e-14
4224.68 2.5716e-14
4227.36 2.4321e-14
4230.05 2.7544e-14
4232.73 2.3102e-14
4235.42 2.7456e-14
4238.1 2.6185e-14
4240.79 2.7518e-14
4243.47 2.6789e-14
4246.15 2.6296e-14
4248.84 2.7794e-14
4251.52 2.7143e-14
4254.21 2.5348e-14
4256.89 2.4706e-14
4259.58 2.7041e-14
4262.26 2.8098e-14
4264.94 2.7085e-14
4267.63 2.6349e-14
4270.31 2.5513e-14
4273.0 2.6841e-14
4275.68 2.4775e-14
4278.37 2.7166e-14
4281.05 2.5915e-14
4283.73 2.4541e-14
4286.42 2.5015e-14
4289.1 2.4705e-14
4291.79 2.4285e-14
4294.47 2.3602e-14
4297.16 2.4091e-14
4299.84 2.1976e-14
4302.52 2.2864e-14
4305.21 2.1964e-14
4307.89 2.4258e-14
4310.58 2.1768e-14
4313.26 2.3897e-14
4315.95 2.566e-14
4318.63 2.63e-14
4321.31 2.6574e-14
4324.0 2.5588e-14
4326.68 2.4634e-14
4329.37 2.6208e-14
4332.05 2.5445e-14
4334.74 2.5107e-14
4337.42 2.4267e-14
4340.1 2.38e-14
4342.79 2.4773e-14
4345.47 2.6247e-14
4348.16 2.6934e-14
4350.84 2.6082e-14
4353.53 2.5689e-14
4356.21 2.4943e-14
4358.89 2.7916e-14
4361.58 2.8641e-14
4364.26 2.8402e-14
4366.95 3.0001e-14
4369.63 2.7971e-14
4372.32 2.6709e-14
4375.0 2.837e-14
4377.68 2.76e-14
4380.37 2.8267e-14
4383.05 2.6988e-14
4385.74 2.5404e-14
4388.42 2.7323e-14
4391.11 2.7362e-14
4393.79 2.5686e-14
4396.47 2.5615e-14
4399.16 2.6868e-14
4401.84 2.648e-14
4404.53 2.67e-14
4407.21 2.8102e-14
4409.9 2.8939e-14
4412.58 2.7114e-14
4415.26 2.7003e-14
4417.95 2.8668e-14
4420.63 2.8917e-14
4423.32 2.8784e-14
4426.0 2.8367e-14
4428.69 2.8523e-14
4431.37 2.8943e-14
4434.05 2.9958e-14
4436.74 3.1087e-14
4439.42 3.0205e-14
4442.11 2.8723e-14
4444.79 2.9958e-14
4447.48 2.9878e-14
4450.16 2.8305e-14
4452.84 2.8241e-14
4455.53 2.8235e-14
4458.21 2.9191e-14
4460.9 2.8923e-14
4463.58 2.7854e-14
4466.27 2.8174e-14
4468.95 2.8441e-14
4471.63 2.9196e-14
4474.32 3.027e-14
4477.0 3.1561e-14
4479.69 3.0683e-14
4482.37 2.9463e-14
4485.06 3.0136e-14
4487.74 2.9653e-14
4490.42 2.9651e-14
4493.11 3.0558e-14
4495.79 2.9857e-14
4498.48 3.0246e-14
4501.16 3.0403e-14
4503.85 2.928e-14
4506.53 2.939e-14
4509.21 3.0293e-14
4511.9 3.1735e-14
4514.58 3.1127e-14
4517.27 3.0399e-14
4519.95 3.0763e-14
4522.64 3.0421e-14
4525.32 2.9689e-14
4528.0 2.8719e-14
4530.69 2.9026e-14
4533.37 2.7944e-14
4536.06 3.0034e-14
4538.74 3.0165e-14
4541.43 2.8965e-14
4544.11 2.9184e-14
4546.79 3.1084e-14
4549.48 2.9963e-14
4552.16 2.9153e-14
4554.85 3.0011e-14
4557.53 3.0245e-14
4560.22 3.0688e-14
4562.9 3.1657e-14
4565.58 3.2414e-14
4568.27 3.214e-14
4570.95 3.0784e-14
4573.64 3.0113e-14
4576.32 3.0594e-14
4579.01 3.1549e-14
4581.69 3.0457e-14
4584.37 3.0768e-14
4587.06 2.9202e-14
4589.74 3.0626e-14
4592.43 3.0375e-14
4595.11 2.9958e-14
4597.8 2.921e-14
4600.48 2.9412e-14
4603.16 2.9578e-14
4605.85 3.1747e-14
4608.53 3.1478e-14
4611.22 3.0654e-14
4613.9 3.2136e-14
4616.59 3.0916e-14
4619.27 3.1239e-14
4621.95 3.0816e-14
4624.64 3.0923e-14
4627.32 3.2524e-14
4630.01 3.2126e-14
4632.69 3.2131e-14
4635.38 3.1718e-14
4638.06 2.9376e-14
4640.74 2.9487e-14
4643.43 3.0354e-14
4646.11 3.0631e-14
4648.8 3.1046e-14
4651.48 3.1377e-14
4654.17 3.055e-14
4656.85 3.2407e-14
4659.53 3.0727e-14
4662.22 2.8866e-14
4664.9 2.9277e-14
4667.59 2.9397e-14
4670.27 2.9485e-14
4672.96 2.9421e-14
4675.64 2.9899e-14
4678.32 3.1535e-14
4681.01 3.2401e-14
4683.69 3.2825e-14
4686.38 3.2126e-14
4689.06 3.0304e-14
4691.75 3.0454e-14
4694.43 2.9986e-14
4697.11 3.0539e-14
4699.8 3.1267e-14
4702.48 2.8639e-14
4705.17 3.0952e-14
4707.85 3.0151e-14
4710.54 3.1168e-14
4713.22 2.9901e-14
4715.9 3.1254e-14
4718.59 3.1845e-14
4721.27 3.175e-14
4723.96 3.0841e-14
4726.64 3.1853e-14
4729.33 3.1333e-14
4732.01 2.9742e-14
4734.69 2.9198e-14
4737.38 3.0783e-14
4740.06 3.064e-14
4742.75 3.217e-14
4745.43 3.2794e-14
4748.12 3.3129e-14
4750.8 3.0975e-14
4753.48 2.9673e-14
4756.17 3.1832e-14
4758.85 3.1601e-14
4761.54 3.1716e-14
4764.22 3.1232e-14
4766.91 3.1211e-14
4769.59 2.9975e-14
4772.27 3.1e-14
4774.96 3.1133e-14
4777.64 3.0905e-14
4780.33 3.2131e-14
4783.01 3.1839e-14
4785.7 3.2343e-14
4788.38 3.0311e-14
4791.06 3.0083e-14
4793.75 3.0278e-14
4796.43 3.1256e-14
4799.12 3.2396e-14
4801.8 3.0793e-14
4804.49 3.1649e-14
4807.17 3.0835e-14
4809.85 3.1031e-14
4812.54 3.2563e-14
4815.22 3.0295e-14
4817.91 3.1882e-14
4820.59 3.1712e-14
4823.28 2.9944e-14
4825.96 2.9486e-14
4828.64 3.0528e-14
4831.33 2.982e-14
4834.01 3.0319e-14
4836.7 2.9094e-14
4839.38 2.972e-14
4842.07 2.742e-14
4844.75 3.0221e-14
4847.43 3.0366e-14
4850.12 2.955e-14
4852.8 2.9946e-14
4855.49 3.1751e-14
4858.17 3.1637e-14
4860.86 3.4792e-14
4863.54 3.5584e-14
4866.22 3.28e-14
4868.91 3.2416e-14
4871.59 3.0645e-14
4874.28 2.9421e-14
4876.96 2.8335e-14
4879.65 2.8561e-14
4882.33 2.9671e-14
4885.01 2.928e-14
4887.7 2.8226e-14
4890.38 2.9031e-14
4893.07 2.9149e-14
4895.75 2.9793e-14
4898.44 3.0477e-14
4901.12 3.0715e-14
4903.8 3.0695e-14
4906.49 3.0785e-14
4909.17 2.844e-14
4911.86 3.043e-14
4914.54 3.0859e-14
4917.23 2.8994e-14
4919.91 2.8228e-14
4922.59 2.9332e-14
4925.28 2.9715e-14
4927.96 3.1308e-14
4930.65 3.0725e-14
4933.33 3.0416e-14
4936.02 3.1264e-14
4938.7 3.2079e-14
4941.38 3.0134e-14
4944.07 3.1979e-14
4946.75 3.2381e-14
4949.44 3.2884e-14
4952.12 3.4178e-14
4954.81 3.2662e-14
4957.49 3.3781e-14
4960.18 3.3745e-14
4962.86 3.5362e-14
4965.54 3.2538e-14
4968.23 3.3559e-14
4970.91 3.1714e-14
4973.6 2.9813e-14
4976.28 3.1684e-14
4978.97 3.0115e-14
4981.65 2.8028e-14
4984.33 2.9577e-14
4987.02 3.0461e-14
4989.7 3.1674e-14
4992.39 3.2533e-14
4995.07 3.2598e-14
4997.76 3.3185e-14
5000.44 3.5925e-14
5003.12 3.94e-14
5005.81 4.1059e-14
5008.49 4.2734e-14
5011.18 4.0627e-14
5013.86 3.8271e-14
5016.55 3.3074e-14
5019.23 3.2382e-14
5021.91 3.0651e-14
5024.6 2.8427e-14
5027.28 2.8621e-14
5029.97 2.866e-14
5032.65 2.9535e-14
5035.34 2.9063e-14
5038.02 2.9951e-14
5040.7 2.7896e-14
5043.39 3.005e-14
5046.07 2.9511e-14
5048.76 3.0283e-14
5051.44 3.0675e-14
5054.13 3.1179e-14
5056.81 2.8992e-14
5059.49 2.9705e-14
5062.18 3.0833e-14
5064.86 3.0289e-14
5067.55 3.0697e-14
5070.23 3.0943e-14
5072.92 2.8427e-14
5075.6 2.8669e-14
5078.28 2.8026e-14
5080.97 2.958e-14
5083.65 2.8705e-14
5086.34 3.0478e-14
5089.02 2.8873e-14
5091.71 2.9934e-14
5094.39 2.9057e-14
5097.07 2.8524e-14
5099.76 2.8009e-14
5102.44 2.9009e-14
5105.13 2.9224e-14
5107.81 2.9127e-14
5110.5 3.0774e-14
5113.18 2.9057e-14
5115.86 3.0147e-14
5118.55 2.9842e-14
5121.23 2.8004e-14
5123.92 2.8915e-14
5126.6 2.8247e-14
5129.29 2.764e-14
5131.97 2.8704e-14
5134.65 2.9503e-14
5137.34 2.897e-14
5140.02 2.9452e-14
5142.71 2.7985e-14
5145.39 2.8656e-14
5148.08 2.9495e-14
5150.76 2.9825e-14
5153.44 2.9419e-14
5156.13 3.0838e-14
5158.81 3.0737e-14
5161.5 3.0602e-14
5164.18 2.9203e-14
5166.87 2.7677e-14
5169.55 2.6914e-14
5172.23 2.7738e-14
5174.92 2.6327e-14
5177.6 2.7013e-14
5180.29 2.7801e-14
5182.97 2.7336e-14
5185.66 2.727e-14
5188.34 3.045e-14
5191.02 3.0297e-14
5193.71 3.104e-14
5196.39 3.1084e-14
5199.08 3.1656e-14
5201.76 3.2157e-14
5204.45 3.199e-14
5207.13 3.1969e-14
5209.81 2.9387e-14
5212.5 3.1464e-14
5215.18 3.1282e-14
5217.87 3.0611e-14
5220.55 3.0919e-14
5223.24 2.9125e-14
5225.92 2.869e-14
5228.6 2.8257e-14
5231.29 2.8925e-14
5233.97 3.0778e-14
5236.66 3.2164e-14
5239.34 3.1763e-14
5242.03 3.2161e-14
5244.71 3.0641e-14
5247.39 3.1096e-14
5250.08 3.1329e-14
5252.76 3.0826e-14
5255.45 3.0294e-14
5258.13 3.0225e-14
5260.82 2.9752e-14
5263.5 2.9001e-14
5266.18 2.8785e-14
5268.87 2.8162e-14
5271.55 2.8284e-14
5274.24 2.9178e-14
5276.92 2.9071e-14
5279.61 3.1635e-14
5282.29 3.1215e-14
5284.97 3.1352e-14
5287.66 3.1485e-14
5290.34 3.1514e-14
5293.03 3.1601e-14
5295.71 3.0751e-14
5298.4 3.0182e-14
5301.08 3.1385e-14
5303.76 3.2624e-14
5306.45 3.2984e-14
5309.13 3.2775e-14
5311.82 3.113e-14
5314.5 3.1809e-14
5317.19 3.0497e-14
5319.87 3.1981e-14
5322.55 3.105e-14
5325.24 3.1074e-14
5327.92 3.1281e-14
5330.61 3.0007e-14
5333.29 3.0955e-14
5335.98 3.1299e-14
5338.66 3.1515e-14
5341.34 3.0085e-14
5344.03 3.1881e-14
5346.71 3.1402e-14
5349.4 3.0755e-14
5352.08 3.2595e-14
5354.77 3.1848e-14
5357.45 3.0841e-14
5360.13 3.165e-14
5362.82 3.1553e-14
5365.5 3.1105e-14
5368.19 3.1445e-14
5370.87 3.0934e-14
5373.56 3.1652e-14
5376.24 3.0398e-14
5378.92 3.2063e-14
5381.61 3.1737e-14
5384.29 3.1987e-14
5386.98 3.1635e-14
5389.66 3.2077e-14
5392.35 3.1049e-14
5395.03 3.1231e-14
5397.71 3.112e-14
5400.4 2.9993e-14
5403.08 2.994e-14
5405.77 3.165e-14
5408.45 3.2076e-14
5411.14 3.1607e-14
5413.82 3.103e-14
5416.5 3.1317e-14
5419.19 2.9913e-14
5421.87 3.0022e-14
5424.56 3.1661e-14
5427.24 3.077e-14
5429.93 3.0511e-14
5432.61 3.0772e-14
5435.29 3.0133e-14
5437.98 3.0562e-14
5440.66 3.2248e-14
5443.35 2.924e-14
5446.03 3.0957e-14
5448.72 3.0073e-14
5451.4 2.934e-14
5454.08 3.0679e-14
5456.77 3.0231e-14
5459.45 3.0943e-14
5462.14 2.8325e-14
5464.82 3.0506e-14
5467.51 2.9886e-14
5470.19 3.05e-14
5472.87 3.0985e-14
5475.56 3.0453e-14
5478.24 2.9985e-14
5480.93 2.9733e-14
5483.61 3.0946e-14
5486.3 3.058e-14
5488.98 3.1603e-14
5491.66 3.0926e-14
5494.35 3.0691e-14
5497.03 3.0295e-14
5499.72 3.121e-14
5502.4 3.2045e-14
5505.09 3.2757e-14
5507.77 3.0985e-14
5510.45 3.0279e-14
5513.14 3.0297e-14
5515.82 3.1902e-14
5518.51 3.165e-14
5521.19 3.1427e-14
5523.88 3.1809e-14
5526.56 3.0428e-14
5529.24 3.0929e-14
5531.93 3.357e-14
5534.61 3.315e-14
5537.3 3.0944e-14
5539.98 3.2001e-14
5542.67 3.1537e-14
5545.35 3.2235e-14
5548.03 3.3264e-14
5550.72 3.1993e-14
5553.4 3.1016e-14
5556.09 2.998e-14
5558.77 3.1359e-14
5561.46 2.9493e-14
5564.14 3.2348e-14
5566.82 3.1864e-14
5569.51 3.0622e-14
5572.19 3.2845e-14
5574.88 3.2543e-14
5577.56 3.2099e-14
5580.25 3.1742e-14
5582.93 3.2611e-14
5585.61 3.1544e-14
5588.3 2.956e-14
5590.98 2.9369e-14
5593.67 3.1072e-14
5596.35 3.0338e-14
5599.04 2.9765e-14
5601.72 3.0899e-14
5604.4 3.1301e-14
5607.09 3.127e-14
5609.77 3.0366e-14
5612.46 3.1502e-14
5615.14 3.0827e-14
5617.83 3.145e-14
5620.51 3.1699e-14
5623.19 3.066e-14
5625.88 3.1199e-14
5628.56 3.1039e-14
5631.25 3.189e-14
5633.93 3.0612e-14
5636.62 3.0302e-14
5639.3 3.0122e-14
5641.98 3.053e-14
5644.67 3.0391e-14
5647.35 2.9883e-14
5650.04 3.0671e-14
5652.72 3.1206e-14
5655.41 3.0743e-14
5658.09 3.3129e-14
5660.77 3.0382e-14
5663.46 3.154e-14
5666.14 3.2034e-14
5668.83 3.1327e-14
5671.51 3.2269e-14
5674.2 3.1581e-14
5676.88 3.286e-14
5679.56 3.2132e-14
5682.25 3.0467e-14
5684.93 3.1747e-14
5687.62 3.0855e-14
5690.3 3.1524e-14
5692.99 3.0745e-14
5695.67 3.1464e-14
5698.35 3.1889e-14
5701.04 3.0894e-14
5703.72 2.9943e-14
5706.41 3.1452e-14
5709.09 2.9561e-14
5711.78 3.1215e-14
5714.46 3.2146e-14
5717.14 3.2284e-14
5719.83 3.2354e-14
5722.51 3.1639e-14
5725.2 3.2311e-14
5727.88 3.0795e-14
5730.57 3.4028e-14
5733.25 3.0391e-14
5735.93 3.1546e-14
5738.62 3.3682e-14
5741.3 3.3368e-14
5743.99 3.2373e-14
5746.67 3.1096e-14
5749.36 3.0648e-14
5752.04 3.2079e-14
5754.72 3.1374e-14
5757.41 3.2087e-14
5760.09 3.2923e-14
5762.78 3.1551e-14
5765.46 3.3406e-14
5768.15 3.4138e-14
5770.83 3.1375e-14
5773.51 3.0968e-14
5776.2 3.2869e-14
5778.88 3.1936e-14
5781.57 3.1473e-14
5784.25 2.9371e-14
5786.94 3.2294e-14
5789.62 3.1215e-14
5792.3 3.0301e-14
5794.99 3.1475e-14
5797.67 3.2438e-14
5800.36 3.1383e-14
5803.04 3.3901e-14
5805.73 3.2474e-14
5808.41 3.1452e-14
5811.09 3.2935e-14
5813.78 3.1905e-14
5816.46 3.3219e-14
5819.15 3.3936e-14
5821.83 3.2939e-14
5824.52 3.066e-14
5827.2 3.4016e-14
5829.88 3.39e-14
5832.57 3.4158e-14
5835.25 3.2351e-14
5837.94 3.2067e-14
5840.62 3.1666e-14
5843.31 2.9995e-14
5845.99 3.102e-14
5848.67 3.0507e-14
5851.36 2.9852e-14
5854.04 3.0042e-14
5856.73 3.2193e-14
5859.41 3.1361e-14
5862.1 3.136e-14
5864.78 3.159e-14
5867.46 3.1841e-14
5870.15 3.2491e-14
5872.83 3.2332e-14
5875.52 3.1924e-14
5878.2 3.0753e-14
5880.89 3.0179e-14
5883.57 2.6669e-14
5886.25 2.5867e-14
5888.94 2.4728e-14
5891.62 2.5392e-14
5894.31 2.6001e-14
5896.99 2.673e-14
5899.68 2.8155e-14
5902.36 3.0026e-14
5905.04 3.0901e-14
5907.73 2.9855e-14
5910.41 3.0913e-14
5913.1 3.2496e-14
5915.78 3.2158e-14
5918.47 3.1995e-14
5921.15 3.18e-14
5923.83 3.2763e-14
5926.52 3.2604e-14
5929.2 3.2313e-14
5931.89 3.1382e-14
5934.57 3.1655e-14
5937.26 3.2844e-14
5939.94 3.2381e-14
5942.62 3.2133e-14
5945.31 3.1574e-14
5947.99 3.1945e-14
5950.68 3.089e-14
5953.36 2.9438e-14
5956.05 3.1209e-14
5958.73 3.3048e-14
5961.41 3.3456e-14
5964.1 3.2618e-14
5966.78 3.1739e-14
5969.47 3.204e-14
5972.15 3.1614e-14
5974.84 3.1048e-14
5977.52 3.1326e-14
5980.2 3.135e-14
5982.89 3.1253e-14
5985.57 3.1832e-14
5988.26 3.266e-14
5990.94 3.2229e-14
5993.63 3.1142e-14
5996.31 3.0267e-14
5998.99 3.0531e-14
6001.68 3.0519e-14
6004.36 3.0244e-14
6007.05 3.0836e-14
6009.73 3.1798e-14
6012.42 3.0908e-14
6015.1 3.1249e-14
6017.78 3.0393e-14
6020.47 3.1243e-14
6023.15 3.1471e-14
6025.84 3.1749e-14
6028.52 3.1506e-14
6031.21 3.1279e-14
6033.89 3.2806e-14
6036.57 3.076e-14
6039.26 3.1576e-14
6041.94 3.1536e-14
6044.63 3.0471e-14
6047.31 3.103e-14
6050.0 3.0809e-14
6052.68 3.2341e-14
6055.36 3.1573e-14
6058.05 3.0568e-14
6060.73 3.1153e-14
6063.42 3.0596e-14
6066.1 3.1653e-14
6068.79 3.3693e-14
6071.47 3.1999e-14
6074.15 3.1327e-14
6076.84 2.9706e-14
6079.52 3.0608e-14
6082.21 3.1523e-14
6084.89 3.2428e-14
6087.58 2.9299e-14
6090.26 3.1037e-14
6092.94 3.1433e-14
6095.63 3.3012e-14
6098.31 3.1351e-14
6101.0 2.9146e-14
6103.68 3.0845e-14
6106.37 3.2937e-14
6109.05 2.9887e-14
6111.73 3.1312e-14
6114.42 3.1062e-14
6117.1 3.3054e-14
6119.79 3.2506e-14
6122.47 3.2186e-14
6125.16 3.2859e-14
6127.84 3.211e-14
6130.52 3.2191e-14
6133.21 3.1192e-14
6135.89 3.0733e-14
6138.58 2.9228e-14
6141.26 3.1961e-14
6143.95 3.1087e-14
6146.63 3.0807e-14
6149.31 3.1239e-14
6152.0 3.1182e-14
6154.68 3.0153e-14
6157.37 2.8685e-14
6160.05 2.9903e-14
6162.74 2.9417e-14
6165.42 3.0957e-14
6168.1 3.001e-14
6170.79 2.9838e-14
6173.47 3.0962e-14
6176.16 3.0632e-14
6178.84 2.9279e-14
6181.53 3.0247e-14
6184.21 3.0876e-14
6186.89 2.9268e-14
6189.58 3.0223e-14
6192.26 3.1075e-14
6194.95 2.9865e-14
6197.63 3.1312e-14
6200.32 3.258e-14
6203.0 3.0898e-14
6205.68 3.226e-14
6208.37 3.122e-14
6211.05 3.1678e-14
6213.74 3.0664e-14
6216.42 2.9238e-14
6219.11 2.8883e-14
6221.79 3.1127e-14
6224.47 2.8752e-14
6227.16 2.8393e-14
6229.84 3.0838e-14
6232.53 3.161e-14
6235.21 3.0731e-14
6237.9 2.675e-14
6240.58 2.8873e-14
6243.26 2.908e-14
6245.95 2.8343e-14
6248.63 2.815e-14
6251.32 2.9866e-14
6254.0 2.9199e-14
6256.69 2.904e-14
6259.37 2.6831e-14
6262.05 2.8985e-14
6264.74 2.9407e-14
6267.42 2.9509e-14
6270.11 2.9539e-14
6272.79 2.9156e-14
6275.48 3.1144e-14
6278.16 3.1031e-14
6280.85 2.9785e-14
6283.53 3.2159e-14
6286.21 3.3889e-14
6288.9 3.6823e-14
6291.58 3.714e-14
6294.27 3.8797e-14
6296.95 4.1619e-14
6299.64 4.3115e-14
6302.32 4.2845e-14
6305.0 3.9766e-14
6307.69 3.8831e-14
6310.37 3.6501e-14
6313.06 3.4317e-14
6315.74 3.251e-14
6318.43 3.2087e-14
6321.11 3.0356e-14
6323.79 3.2239e-14
6326.48 3.1517e-14
6329.16 3.1286e-14
6331.85 3.1026e-14
6334.53 3.0191e-14
6337.22 3.1536e-14
6339.9 3.0131e-14
6342.58 3.1459e-14
6345.27 3.0863e-14
6347.95 3.2493e-14
6350.64 3.3295e-14
6353.32 3.1443e-14
6356.01 3.0727e-14
6358.69 3.347e-14
6361.37 3.5203e-14
6364.06 3.341e-14
6366.74 3.4301e-14
6369.43 3.3373e-14
6372.11 3.2672e-14
6374.8 3.3566e-14
6377.48 3.2778e-14
6380.16 3.3074e-14
6382.85 3.2408e-14
6385.53 3.084e-14
6388.22 3.2028e-14
6390.9 3.265e-14
6393.59 3.2861e-14
6396.27 2.9951e-14
6398.95 2.9243e-14
6401.64 2.9875e-14
6404.32 2.9964e-14
6407.01 3.0741e-14
6409.69 2.9257e-14
6412.38 3.029e-14
6415.06 2.9159e-14
6417.74 3.0428e-14
6420.43 2.9886e-14
6423.11 2.9871e-14
6425.8 3.0508e-14
6428.48 3.0316e-14
6431.17 3.0012e-14
6433.85 2.9985e-14
6436.53 3.0747e-14
6439.22 3.0441e-14
6441.9 3.0873e-14
6444.59 3.0498e-14
6447.27 2.9588e-14
6449.96 3.095e-14
6452.64 2.9014e-14
6455.32 2.9672e-14
6458.01 2.9929e-14
6460.69 2.9933e-14
6463.38 3.0579e-14
6466.06 2.8886e-14
6468.75 3.1845e-14
6471.43 3.055e-14
6474.11 3.2107e-14
6476.8 3.1604e-14
6479.48 3.1687e-14
6482.17 3.1711e-14
6484.85 3.0634e-14
6487.54 3.0356e-14
6490.22 2.9073e-14
6492.9 3.0097e-14
6495.59 2.7755e-14
6498.27 2.9317e-14
6500.96 2.9151e-14
6503.64 3.0593e-14
6506.33 3.0487e-14
6509.01 2.9375e-14
6511.69 3.1635e-14
6514.38 3.2805e-14
6517.06 3.2608e-14
6519.75 3.1327e-14
6522.43 3.1618e-14
6525.12 3.3129e-14
6527.8 3.5065e-14
6530.48 3.537e-14
6533.17 3.7472e-14
6535.85 3.8901e-14
6538.54 4.0554e-14
6541.22 4.701e-14
6543.91 5.0968e-14
6546.59 5.4699e-14
6549.27 5.8344e-14
6551.96 6.1779e-14
6554.64 6.8503e-14
6557.33 7.5541e-14
6560.01 8.08e-14
6562.7 8.3297e-14
6565.38 8.4488e-14
6568.06 7.8524e-14
6570.75 7.425e-14
6573.43 7.2561e-14
6576.12 7.4262e-14
6578.8 8.1139e-14
6581.49 8.788e-14
6584.17 9.0115e-14
6586.85 8.6938e-14
6589.54 7.7715e-14
6592.22 6.8233e-14
6594.91 5.8782e-14
6597.59 5.0488e-14
6600.28 4.309e-14
6602.96 3.9199e-14
6605.64 3.6623e-14
6608.33 3.4604e-14
6611.01 3.3661e-14
6613.7 3.2125e-14
6616.38 3.1432e-14
6619.07 3.2039e-14
6621.75 3.0843e-14
6624.43 3.0154e-14
6627.12 3.1223e-14
6629.8 3.1143e-14
6632.49 3.1031e-14
6635.17 2.9688e-14
6637.86 2.8608e-14
6640.54 2.9595e-14
6643.22 3.0645e-14
6645.91 3.0734e-14
6648.59 3.1784e-14
6651.28 3.1824e-14
6653.96 3.0636e-14
6656.65 2.944e-14
6659.33 2.8995e-14
6662.01 2.8392e-14
6664.7 2.7877e-14
6675.7 3.0753e-14
6691.08 3.0612e-14
6706.51 3.0402e-14
6721.97 2.9169e-14
6737.46 3.0404e-14
6752.99 2.985e-14
6768.56 3.0476e-14
6784.17 3.0829e-14
6799.8 2.9921e-14
6815.48 3.0198e-14
6831.19 3.0761e-14
6846.94 2.9175e-14
6862.72 2.965e-14
6878.54 2.9311e-14
6894.4 2.9447e-14
6910.29 2.9584e-14
6926.22 2.9653e-14
6942.19 3.0484e-14
6958.19 3.0206e-14
6974.24 3.1124e-14
6990.31 3.1125e-14
7006.42 3e-14
7022.58 2.9318e-14
7038.77 3.0984e-14
7054.99 3.2148e-14
7071.25 2.9523e-14
7087.56 3.0632e-14
7103.89 2.8787e-14
7120.27 2.8721e-14
7136.69 2.7492e-14
7153.14 2.8329e-14
7169.63 2.8395e-14
7186.16 2.82e-14
7202.72 2.8071e-14
7219.32 2.9125e-14
7235.96 2.9396e-14
7252.65 2.8993e-14
7269.37 2.8728e-14
7286.12 2.933e-14
7302.92 3.0292e-14
7319.75 3.0084e-14
7336.63 3.0434e-14
7353.54 3.0787e-14
7370.49 2.9949e-14
7387.48 3.1797e-14
7404.52 3.1434e-14
7421.58 3.0159e-14
7438.69 3.0933e-14
7455.84 3.1077e-14
7473.03 3.1583e-14
7490.25 3.1007e-14
7507.52 3.1585e-14
7524.83 3.2099e-14
7542.17 3.2174e-14
7559.56 3.1587e-14
7576.99 3.1083e-14
7594.45 3.0799e-14
7611.96 3.0238e-14
7629.51 3.0589e-14
7647.1 3.0239e-14
7664.72 2.9688e-14
7682.39 2.908e-14
7700.1 2.9283e-14
7717.85 2.9486e-14
7735.64 2.9016e-14
7753.48 2.8685e-14
7771.35 2.9421e-14
7789.26 2.8885e-14
7807.22 2.8753e-14
7825.22 3.0109e-14
7843.26 2.8557e-14
7861.34 2.9493e-14
7879.46 2.9494e-14
7897.63 2.9974e-14
7915.83 2.9158e-14
7934.08 2.8759e-14
7952.37 2.7529e-14
7970.7 2.896e-14
7989.08 2.9162e-14
8007.49 2.8565e-14
8025.95 3.0119e-14
8044.45 3.0609e-14
8063.0 3.026e-14
8081.58 2.9301e-14
8100.21 2.8635e-14
8118.89 2.9916e-14
8137.6 3.0264e-14
8156.36 2.9507e-14
8175.17 2.9238e-14
8194.01 2.8116e-14
8212.9 2.9783e-14
8231.83 2.9511e-14
8250.81 2.9992e-14
8269.83 3.0833e-14
8288.89 2.9718e-14
8308.0 2.9379e-14
8327.15 2.938e-14
8346.35 2.8646e-14
8365.59 2.945e-14
8384.87 2.878e-14
8404.2 2.9316e-14
8423.58 2.9115e-14
8443.0 2.7487e-14
8462.46 2.8917e-14
8481.96 2.8851e-14
8501.52 2.9052e-14
8521.12 2.8196e-14
8540.76 2.8393e-14
8560.45 2.8004e-14
8580.18 2.8723e-14
8599.96 2.8395e-14
8619.79 2.7814e-14
8639.66 2.8726e-14
8659.57 2.7561e-14
8679.53 2.7183e-14
8699.55 2.6382e-14
8719.6 2.814e-14
8739.7 2.8336e-14
8759.85 2.7312e-14
8780.04 2.8469e-14
8800.28 2.8079e-14
8820.57 2.8602e-14
8840.9 2.8934e-14
8861.28 2.867e-14
8881.71 2.7192e-14
8902.18 2.7319e-14
8922.7 2.77e-14
8943.27 2.7573e-14
8963.89 2.6884e-14
8984.55 2.6517e-14
9005.26 2.7831e-14
9026.03 2.4465e-14
9046.83 2.8811e-14
9067.69 2.9146e-14
9088.59 2.6278e-14
9109.54 2.6339e-14
9130.54 2.7901e-14
9151.59 2.7017e-14
9172.69 2.7394e-14
9193.83 2.6895e-14
9215.02 2.7332e-14
9236.27 2.5983e-14
9257.56 2.6225e-14
9278.9 2.8361e-14
9300.29 2.6714e-14
9321.73 2.8233e-14
9343.22 2.8169e-14
9364.76 2.7719e-14
9386.35 2.8171e-14
9407.98 2.7594e-14
9429.67 2.8565e-14
9451.41 2.8174e-14
9473.2 2.8964e-14
9495.03 2.9032e-14
9516.92 2.8112e-14
9538.86 2.8373e-14
9560.85 2.7411e-14
9582.89 2.8903e-14
9604.98 2.8507e-14
9627.12 2.8706e-14
9649.31 2.8248e-14
9671.56 2.8249e-14
9693.85 2.8709e-14
9716.2 2.8056e-14
9738.6 2.7672e-14
9761.05 2.761e-14
9783.55 2.7484e-14
9806.1 2.8255e-14
9828.7 2.7933e-14
9851.37 2.8192e-14
9874.08 2.7999e-14
9896.84 2.8e-14
9919.65 2.7808e-14
9942.52 2.8326e-14
9965.44 2.8393e-14
9988.42 2.8263e-14
10034.52 2.8593e-14
10080.83 2.8203e-14
10127.36 2.9263e-14
10174.12 2.9064e-14
10221.07 2.9606e-14
10268.25 3.0021e-14
10291.92 3.0091e-14
10507.43 2.8943e-14
10702.78 2.7387e-14
10901.75 2.7136e-14
11104.44 2.5208e-14
11310.89 2.5559e-14
11494.67 2.6034e-14
11708.37 2.5559e-14
11898.62 2.3689e-14
12091.95 2.4074e-14
12288.43 2.4018e-14
12488.1 2.3096e-14
12691.02 2.2675e-14
12897.23 2.2415e-14
13106.79 2.2159e-14
13289.12 2.1308e-14
13505.05 2.068e-14
13692.93 2.0349e-14
13915.42 1.9299e-14
14109.0 1.8094e-14
14305.28 1.797e-14
14504.29 1.8304e-14
14706.06 1.7561e-14
14910.65 1.8053e-14
15083.31 1.8431e-14
15293.14 1.9035e-14
15505.89 1.886e-14
15685.43 1.8431e-14
15903.64 1.7642e-14
16087.8 1.7601e-14
16311.6 1.7642e-14
16500.48 1.7601e-14
16691.54 1.7805e-14
16884.82 1.7887e-14
17080.34 1.7764e-14
17317.95 1.7161e-14
17518.49 1.6578e-14
17680.58 1.5687e-14
17885.31 1.481e-14
18092.42 1.3885e-14
18301.9 1.3507e-14
18513.84 1.2988e-14
18685.15 1.2262e-14
18901.52 1.2038e-14
19120.37 1.1982e-14
19297.3 1.1737e-14
19520.76 1.1312e-14
19701.37 1.0878e-14
19883.67 1.0533e-14
20113.92 1.0436e-14
20300.01 1.0175e-14
20487.86 1.0175e-14
20677.44 1.0059e-14
20916.85 9.9436e-15
21110.4 9.8979e-15
21305.75 9.7621e-15
21502.87 9.6504e-15
21701.84 9.3874e-15
21902.63 9.2586e-15
22105.31 9.027e-15
22309.85 8.8215e-15
22516.27 8.6508e-15
22724.62 8.4658e-15
22882.13 7.6187e-15
23093.86 7.5598e-15
23307.53 6.655e-15
23523.2 6.2487e-15
23686.27 6.3392e-15
23905.42 5.8573e-15
24126.63 5.6023e-15
24293.85 5.4528e-15
24518.65 4.9809e-15
24688.6 4.8037e-15
24855.73 4.2638e-15
24950.22 4.0614e-15
25044.61 3.9548e-15
25139.09 3.9292e-15
25233.48 3.8888e-15
25327.97 3.8664e-15
25422.46 3.8793e-15
25516.85 3.8987e-15
25611.34 3.9433e-15
25705.82 3.9917e-15
25800.21 3.9544e-15
25894.7 3.8978e-15
25989.09 3.8394e-15
26083.57 3.8624e-15
26178.06 3.9186e-15
26272.45 3.9007e-15
26366.94 3.857e-15
26461.43 3.7864e-15
26555.81 3.707e-15
26650.3 3.6048e-15
26744.69 3.4838e-15
26839.18 3.4185e-15
26933.66 3.4097e-15
27028.05 3.4636e-15
27122.54 3.4423e-15
27217.03 3.4685e-15
27311.42 3.3505e-15
27405.9 3.3174e-15
27500.29 3.2436e-15
27594.78 3.3342e-15
27689.27 3.4254e-15
27783.66 3.604e-15
27878.14 3.6343e-15
27972.63 3.6355e-15
28067.02 3.388e-15
28161.51 3.225e-15
28255.9 3.0594e-15
28350.38 2.9856e-15
28444.87 2.9054e-15
28539.26 2.8518e-15
28633.75 2.7617e-15
28728.23 2.764e-15
28822.62 2.7417e-15
28917.11 2.6801e-15
29011.5 2.5779e-15
29105.99 2.5434e-15
29200.47 2.5708e-15
29294.86 2.6427e-15
29389.35 2.6115e-15
29483.84 2.537e-15
29578.23 2.5217e-15
29672.71 2.5452e-15
29767.1 2.5611e-15
29861.59 2.5338e-15
29956.07 2.4619e-15
30050.46 2.4342e-15
30144.95 2.3951e-15
30239.44 2.4121e-15
30333.83 2.3651e-15
30428.32 2.3738e-15
30522.7 2.3826e-15
30617.19 2.4633e-15
30711.68 2.4881e-15
30806.07 2.4833e-15
30900.55 2.4858e-15
30995.04 2.4378e-15
31089.43 2.351e-15
31183.92 2.3038e-15
31278.31 2.262e-15
31372.79 2.2813e-15
31467.28 2.3038e-15
31561.67 2.3999e-15
31656.16 2.4135e-15
31750.64 2.4498e-15
31845.03 2.4453e-15
31939.52 2.556e-15
32033.91 2.6669e-15
32128.4 2.7936e-15
32222.88 2.8391e-15
32317.27 2.9706e-15
32411.76 3.1242e-15
32506.25 3.3432e-15
32600.64 3.356e-15
32695.12 3.4053e-15
32789.51 3.4681e-15
32884.0 3.5394e-15
32978.49 3.5264e-15
33072.88 3.3678e-15
33167.36 3.0865e-15
33261.85 2.8201e-15
33356.24 2.6602e-15
33450.73 2.5731e-15
33545.12 2.4779e-15
33639.6 2.4549e-15
33734.09 2.4162e-15
33828.48 2.4881e-15
33922.96 2.4798e-15
34017.45 2.517e-15
34111.84 2.488e-15
34206.33 2.4848e-15
34300.72 2.3885e-15
34395.2 2.3691e-15
34489.69 2.3713e-15
34584.08 2.3916e-15
34678.57 2.315e-15
34773.06 2.4054e-15
34867.44 2.3971e-15
34961.93 2.341e-15
35056.32 2.2353e-15
35150.81 2.1706e-15
35245.3 2.1445e-15
35339.69 2.1257e-15
35434.17 2.0521e-15
35528.66 2.0247e-15
35623.05 1.952e-15
35717.53 1.919e-15
35811.92 1.8979e-15
35906.41 1.9238e-15
36000.9 1.9174e-15
36095.29 1.9245e-15
36189.77 1.8474e-15
36284.26 1.8301e-15
36378.65 1.7677e-15
36473.14 1.7658e-15
36567.53 1.7217e-15
36662.01 1.7405e-15
36756.5 1.7286e-15
36850.89 1.7466e-15
36945.38 1.7186e-15
37039.87 1.7516e-15
37134.25 1.7569e-15
37228.74 1.774e-15
37323.13 1.7447e-15
37417.61 1.6784e-15
37512.1 1.6385e-15
37606.49 1.6262e-15
37700.98 1.642e-15
37795.47 1.6818e-15
37889.86 1.7156e-15
37984.34 1.743e-15
38078.73 1.7298e-15
38173.22 1.7176e-15
38267.71 1.665e-15
38362.1 1.6231e-15
38456.58 1.5693e-15
38551.07 1.5507e-15
38645.46 1.5215e-15
38739.95 1.4741e-15
38834.34 1.4414e-15
38928.82 1.4513e-15
39023.31 1.4702e-15
39117.7 1.4742e-15
39212.19 1.5048e-15
39306.67 1.5403e-15
39401.06 1.5338e-15
39495.55 1.5328e-15
39589.94 1.5027e-15
39684.42 1.4618e-15
39778.92 1.4308e-15
39873.3 1.4126e-15
39967.79 1.4028e-15
40062.28 1.3916e-15
40156.66 1.4194e-15
40251.15 1.4684e-15
40345.54 1.5401e-15
40440.03 1.5595e-15
40534.52 1.4876e-15
40628.9 1.3975e-15
40723.39 1.3084e-15
40817.88 1.2776e-15
40912.27 1.2293e-15
41006.75 1.2391e-15
41101.14 1.2493e-15
41195.63 1.3017e-15
41290.12 1.3267e-15
41384.5 1.3652e-15
41479.0 1.4421e-15
41573.48 1.5596e-15
41667.87 1.6165e-15
41762.36 1.6079e-15
41856.75 1.5064e-15
41951.23 1.4394e-15
42045.72 1.362e-15
42140.11 1.2976e-15
42234.6 1.2157e-15
42329.08 1.1654e-15
42423.47 1.1254e-15
42517.96 1.1144e-15
42612.35 1.1018e-15
42706.83 1.1171e-15
42801.33 1.1246e-15
42895.71 1.1061e-15
42990.2 1.0819e-15
43084.69 1.0812e-15
43179.08 1.0895e-15
43273.56 1.1362e-15
43367.95 1.1576e-15
43462.44 1.1523e-15
43556.93 1.1465e-15
43651.32 1.1479e-15
43745.8 1.1615e-15
43840.29 1.193e-15
43934.68 1.2188e-15
44029.17 1.2315e-15
44123.55 1.141e-15
44218.04 1.0986e-15
44312.53 1.0806e-15
44406.92 1.0641e-15
44501.41 1.0531e-15
44595.89 1.0499e-15
44690.28 1.0603e-15
44784.77 1.0446e-15
44879.16 9.935e-16
44973.65 9.7956e-16
45068.13 9.3644e-16
45162.52 9.2888e-16
45257.01 9.2867e-16
45351.5 9.5451e-16
45445.88 9.611e-16
45540.37 9.6909e-16
45634.76 9.5482e-16
45729.25 9.518e-16
45823.73 9.6347e-16
45918.12 9.9355e-16
46012.61 1.0002e-15
46107.1 1.0315e-15
46201.49 1.043e-15
46295.98 1.1216e-15
46390.36 1.2028e-15
46484.85 1.3657e-15
46579.34 1.5422e-15
46673.73 1.6822e-15
46768.21 1.632e-15
46862.7 1.5458e-15
46957.09 1.3773e-15
47051.58 1.2722e-15
47145.96 1.1675e-15
47240.46 1.0977e-15
47334.94 1.0428e-15
47429.33 1.029e-15
47523.82 1.0102e-15
47618.3 9.9076e-16
47712.69 9.6615e-16
47807.18 9.531e-16
47901.57 9.4978e-16
47996.06 9.393e-16
48090.54 9.1775e-16
48184.93 8.8927e-16
48279.42 8.2872e-16
48373.91 8.0488e-16
48858.63 8.6429e-16
49347.22 9.2418e-16
49840.69 9.8466e-16
50339.1 1.0458e-15
50842.49 1.1075e-15
51350.91 1.1698e-15
51864.42 1.2327e-15
52082.74 1.2595e-15
52385.19 1.3515e-15
52687.65 1.2617e-15
52990.09 1.4474e-15
53292.54 1.8237e-15
53594.99 1.5673e-15
53897.44 1.0132e-15
54199.89 9.6794e-16
54502.34 1.0634e-15
54804.79 1.676e-15
55107.24 2.0263e-15
55409.69 1.5516e-15
55712.15 1.03e-15
56014.59 1.1471e-15
56317.04 1.3781e-15
56619.48 1.3566e-15
56921.94 1.3714e-15
57224.4 1.376e-15
57526.84 1.3261e-15
57829.29 1.2637e-15
58131.74 1.2201e-15
58434.19 1.1518e-15
58736.63 1.1699e-15
59039.09 1.1836e-15
59341.54 1.2062e-15
59643.99 1.2717e-15
59946.44 1.4264e-15
60248.89 1.5726e-15
60551.33 1.6907e-15
60853.79 2.0681e-15
61156.24 2.5105e-15
61458.68 2.738e-15
61761.13 3.2098e-15
62063.59 3.4322e-15
62366.04 3.2248e-15
62668.48 2.8115e-15
62970.93 2.4061e-15
63273.39 1.9978e-15
63575.83 1.9797e-15
63878.28 1.8227e-15
64180.74 1.7029e-15
64483.18 1.603e-15
64785.63 1.5135e-15
65088.09 1.4675e-15
65390.53 1.454e-15
65692.98 1.4114e-15
65995.43 1.4801e-15
66297.88 1.5384e-15
66600.33 1.573e-15
66902.78 1.5329e-15
67205.23 1.5466e-15
67507.69 1.4895e-15
67810.13 1.4951e-15
68112.58 1.5434e-15
68415.03 1.662e-15
68717.48 2.4868e-15
69019.93 3.8038e-15
69322.38 3.5596e-15
69624.83 2.7546e-15
69927.28 2.754e-15
70229.72 2.2312e-15
70532.18 1.8611e-15
70834.62 1.8706e-15
71137.07 1.8736e-15
71439.54 1.9146e-15
71741.98 1.9074e-15
72044.42 1.9114e-15
72346.88 1.942e-15
72649.33 1.9542e-15
72951.77 2.0436e-15
73254.22 2.1564e-15
73536.88 1.9671e-15
73556.68 2.3403e-15
73859.13 2.4748e-15
74142.97 2.308e-15
74161.57 2.6673e-15
74749.08 2.6397e-15
75355.18 2.9996e-15
75961.29 3.2502e-15
76567.39 3.2409e-15
77173.5 3.1693e-15
77779.6 3.0846e-15
78385.7 2.9535e-15
78991.82 2.7252e-15
79597.92 2.6129e-15
80204.02 2.648e-15
80810.13 2.0948e-15
81416.23 1.7155e-15
82022.34 1.5877e-15
82628.44 1.5397e-15
83234.55 1.4847e-15
83840.65 1.448e-15
84446.77 1.4355e-15
85052.86 1.453e-15
85658.97 1.4449e-15
86265.07 1.3597e-15
86871.17 1.1904e-15
87477.28 1.0187e-15
88083.38 8.3915e-16
88689.48 7.0332e-16
89295.6 6.191e-16
89901.7 5.8118e-16
90507.81 5.0672e-16
91113.91 4.5025e-16
91720.01 4.3023e-16
92326.11 4.0441e-16
92932.21 3.8652e-16
93538.33 3.8348e-16
94144.43 3.7125e-16
94750.53 3.7362e-16
95356.65 3.8441e-16
95962.75 7.0819e-16
96568.85 1.2661e-15
97174.96 7.9429e-16
97781.02 3.7381e-16
98387.18 3.1132e-16
98993.24 3.0901e-16
99599.41 3.0816e-16
100205.47 3.2219e-16
100811.62 3.2104e-16
101417.7 3.2076e-16
102023.76 3.281e-16
102629.92 3.3816e-16
103235.98 3.3938e-16
103842.15 3.6104e-16
104448.21 3.9255e-16
105054.27 4.4852e-16
105660.43 4.7265e-16
106266.5 4.5988e-16
106872.66 4.5953e-16
107478.72 4.5841e-16
108084.88 4.6003e-16
108690.95 4.7186e-16
109297.01 5.2083e-16
109903.17 5.9089e-16
110509.23 6.75e-16
111115.4 9.2285e-16
111721.46 1.5371e-15
112327.62 2.0256e-15
112933.68 1.889e-15
113539.74 1.6369e-15
114145.91 1.3911e-15
114751.97 1.1962e-15
115358.13 1.0707e-15
115964.19 9.8648e-16
116570.36 9.3103e-16
117176.42 9.1102e-16
117782.48 9.2529e-16
118388.65 9.5463e-16
118994.71 1.0304e-15
119600.87 1.0885e-15
120206.93 1.103e-15
120813.01 1.1019e-15
121419.16 1.1121e-15
122025.22 1.2624e-15
122631.38 1.5783e-15
123237.45 1.4767e-15
123843.61 1.2894e-15
124449.68 1.2937e-15
125055.74 1.3606e-15
125661.9 1.4464e-15
126267.96 1.5268e-15
126874.12 1.6663e-15
127480.18 2.2349e-15
128086.25 3.0143e-15
128692.41 2.2455e-15
129298.48 1.3977e-15
129904.64 1.208e-15
130510.69 1.1323e-15
131116.85 1.1203e-15
131722.92 1.1241e-15
132328.99 1.1148e-15
132935.15 1.1225e-15
133541.21 1.1268e-15
134147.37 1.1397e-15
134753.44 1.1575e-15
135359.6 1.1718e-15
135965.65 1.1707e-15
136571.72 1.1963e-15
137177.89 1.1503e-15
137783.96 1.1287e-15
138390.1 1.113e-15
138996.17 1.1091e-15
139602.33 1.0997e-15
140208.4 1.0565e-15
140814.46 1.0258e-15
141420.63 1.0057e-15
141942.16 1.1133e-15
142837.14 1.145e-15
143732.23 1.2782e-15
144627.23 1.1005e-15
145522.21 1.0851e-15
146417.21 1.0693e-15
147312.3 1.0639e-15
148207.29 1.0374e-15
149102.27 1.0817e-15
149997.36 1.1458e-15
150892.36 9.8183e-16
151787.34 1.0329e-15
152682.34 1.0207e-15
153577.42 1.0047e-15
154472.42 1.0914e-15
155367.4 1.584e-15
156262.49 1.3852e-15
157157.49 1.0476e-15
158052.47 1.0149e-15
158947.56 1.021e-15
159842.55 9.9044e-16
160737.54 9.888e-16
161632.53 9.5985e-16
162527.64 1.2268e-15
163422.6 1.1068e-15
164317.6 1.191e-15
165212.6 1.1555e-15
166107.68 1.1156e-15
167002.68 1.1087e-15
167897.68 1.0731e-15
168792.77 1.177e-15
169687.75 1.6361e-15
170582.74 2.1738e-15
171477.83 1.3165e-15
172372.81 1.1381e-15
173267.81 1.1536e-15
174162.79 1.1155e-15
175057.88 1.0783e-15
175952.88 1.0389e-15
176847.86 1.0554e-15
177742.95 1.0296e-15
178637.94 1.0496e-15
179532.92 1.0567e-15
180428.01 9.9699e-16
181323.01 9.7999e-16
182218.01 9.8667e-16
183112.99 9.7924e-16
184008.08 9.8212e-16
184903.07 9.7325e-16
185798.05 9.8507e-16
186693.16 1.1258e-15
187588.15 1.1479e-15
188483.12 1.0559e-15
189378.12 1.0147e-15
190273.22 1.033e-15
191168.2 1.0331e-15
192063.2 1.0632e-15
192958.29 1.0641e-15
193853.27 1.0597e-15
194748.27 1.0845e-15
195643.26 1.1235e-15
196538.35 1.1203e-15
197433.33 1.1439e-15
198328.33 1.1274e-15
199223.42 1.1827e-15
200640.72 1.0975e-15
202353.77 1.2848e-15
204067.81 1.2469e-15
205782.84 1.1967e-15
207498.73 1.3286e-15
209215.5 1.3045e-15
210933.24 1.2591e-15
212651.89 1.3396e-15
214371.48 1.1938e-15
216092.07 1.3527e-15
217813.52 1.3138e-15
219535.96 1.4122e-15
221259.28 1.4728e-15
222983.55 1.4205e-15
224708.82 1.3718e-15
226434.97 1.4395e-15
228162.09 1.4959e-15
229890.19 1.504e-15
231619.17 1.458e-15
233349.22 1.4857e-15
235080.05 1.5561e-15
236811.94 1.6204e-15
238544.83 1.5984e-15
240278.59 1.596e-15
242013.31 1.6752e-15
243749.02 1.8965e-15
245485.61 1.7586e-15
247223.27 1.7714e-15
248961.82 1.7294e-15
250701.44 1.7821e-15
252441.91 2.0406e-15
254183.4 1.8409e-15
255925.84 1.8535e-15
257669.26 1.8836e-15
259413.65 1.9832e-15
261159.05 1.9637e-15
262905.39 1.9025e-15
264652.71 1.9527e-15
266401.0 2.2689e-15
268150.28 1.9276e-15
269900.64 1.9195e-15
271651.87 1.9523e-15
273404.07 2.0102e-15
275157.34 1.8092e-15
276911.61 2.0198e-15
278666.74 2.0124e-15
280422.93 2.0197e-15
282180.14 2.0834e-15
283938.41 2.0847e-15
285697.62 2.1204e-15
287457.75 2.0495e-15
289219.01 2.1156e-15
290981.19 2.1187e-15
292744.4 2.1251e-15
294508.62 2.0835e-15
296273.81 2.2307e-15
298040.07 2.1634e-15
299807.31 2.1785e-15
301575.52 2.1597e-15
303344.81 2.3974e-15
305115.19 2.1383e-15
306886.51 2.1178e-15
308658.84 2.183e-15
310432.12 2.257e-15
312206.59 2.2125e-15
313981.94 2.2282e-15
315758.42 2.3073e-15
317535.82 2.1707e-15
319314.37 2.2703e-15
321093.93 2.2229e-15
322874.41 2.2303e-15
324656.01 2.2849e-15
326438.69 2.4978e-15
328222.4 2.4735e-15
330007.14 2.3165e-15
331792.9 2.4723e-15
333579.66 2.4454e-15
335367.52 2.3219e-15
337156.53 2.3542e-15
338946.4 2.4409e-15
340737.47 2.431e-15
