# col1 col2
# An Atlas of Galaxy Spectral Energy Distributions from the Ultraviolet to the Mid-Infrared
# Brown et al. (2014)
# http://dx.doi.org/10.5072/03/529D3551F0117
# 
# Column 1 : Restframe Wavelength (Angstrom)
# Column 2 : Flux per unit wavelength (ergs/s/cm^2/Angstrom)
# Column 3 : Observed wavelength (Angstrom)
# Column 4 : Source (0 = model, 1 = Optical Spectrum, 2 = Akari, 3 = Spitzer IRS)
# 
100.1 1.2395e-20
101.97 1.6303e-20
104.1 1.9555e-20
106.04 2.4058e-20
108.01 3.0079e-20
110.02 4.3377e-20
113.88 6.071e-20
117.88 8.0031e-20
120.91 2.8006e-19
124.87 3.5096e-19
126.9 3.8129e-19
128.07 4.0388e-19
131.06 4.5108e-19
131.96 5.2876e-19
134.11 5.6397e-19
136.92 7.1e-19
140.11 7.8209e-19
143.04 1.9331e-18
147.05 4.4798e-18
151.17 4.9007e-18
155.04 5.4232e-18
159.02 6.0431e-18
161.98 6.4902e-18
166.13 7.1988e-18
170.0 7.8029e-18
173.16 8.3418e-18
177.2 9.0211e-18
180.08 9.5336e-18
182.16 9.8914e-18
185.97 1.0623e-17
191.19 1.1568e-17
193.84 1.2225e-17
197.9 1.3009e-17
202.05 1.3876e-17
204.86 1.453e-17
210.11 1.4971e-17
216.0 1.6993e-17
220.02 1.8041e-17
223.08 1.8589e-17
227.22 1.9736e-17
229.86 3.0357e-17
234.13 4.8446e-17
240.13 6.1271e-17
245.73 5.9328e-17
252.03 6.4753e-17
256.72 5.6138e-17
260.29 6.5653e-17
263.91 7.2821e-17
268.82 7.5728e-17
273.81 7.857e-17
278.9 7.857e-17
284.09 8.5755e-17
290.04 8.8973e-17
296.11 9.2525e-17
300.92 9.1255e-17
307.93 1.031e-16
318.02 1.1837e-16
327.68 1.3591e-16
337.64 1.4834e-16
347.9 1.619e-16
356.82 2.2042e-16
365.98 3.3671e-16
375.37 3.7693e-16
384.99 3.5831e-16
394.87 5.5752e-16
405.0 7.538e-16
414.43 8.3418e-16
422.14 8.4384e-16
429.99 8.836e-16
441.02 1.1357e-15
451.29 1.2772e-15
459.68 1.2453e-15
470.39 1.3844e-15
480.24 1.6682e-15
490.29 1.5677e-15
500.56 2.0336e-15
506.35 1.8804e-15
512.22 2.994e-15
520.54 3.0217e-15
530.22 3.0079e-15
540.07 2.6808e-15
550.12 2.7814e-15
560.34 3.7693e-15
569.45 4.398e-15
580.03 4.5212e-15
589.46 4.8335e-15
600.42 4.3377e-15
610.17 4.3677e-15
620.09 5.705e-15
630.16 5.6138e-15
640.4 6.3571e-15
649.31 6.3717e-15
658.35 6.071e-15
664.44 6.9224e-15
675.23 7.4689e-15
684.63 6.7028e-15
695.75 7.9115e-15
705.43 6.7183e-15
715.24 8.6349e-15
725.19 8.9384e-15
735.28 9.1676e-15
745.51 9.1255e-15
754.14 9.2738e-15
764.63 8.5755e-15
775.27 9.7109e-15
784.25 9.1888e-15
795.16 1.0006e-14
804.37 1.0405e-14
815.56 1.0648e-14
825.0 1.0997e-14
834.55 9.0627e-15
844.22 1.115e-14
855.96 1.115e-14
865.87 1.1675e-14
875.9 1.1892e-14
884.0 1.2085e-14
894.24 1.2282e-14
904.59 1.2197e-14
915.07 1.2169e-14
925.67 3.0148e-14
934.23 5.0033e-14
945.05 7.2989e-14
955.99 8.959e-14
964.84 9.9142e-14
976.01 3.3827e-14
985.04 8.2843e-14
994.16 8.2463e-14
1005.67 1.0722e-13
1014.97 1.0697e-13
1024.36 6.4455e-14
1033.84 8.836e-14
1045.81 1.3312e-13
1055.49 1.295e-13
1065.26 1.0796e-13
1075.11 1.2141e-13
1085.06 1.031e-13
1095.1 1.2539e-13
1105.23 1.2058e-13
1115.46 1.1729e-13
1125.78 1.0478e-13
1136.2 1.2597e-13
1144.07 1.1756e-13
1154.66 1.2058e-13
1165.34 1.2113e-13
1176.13 8.4968e-14
1184.28 1.1595e-13
1195.24 9.2525e-14
1206.3 7.5728e-14
1214.66 5.7314e-14
1225.9 8.9384e-14
1234.39 1.1595e-13
1245.82 1.2282e-13
1254.45 1.1865e-13
1266.06 1.0921e-13
1274.84 1.286e-13
1283.67 1.3221e-13
1295.55 1.1124e-13
1304.53 1.1047e-13
1313.57 1.295e-13
1325.73 1.2395e-13
1334.92 1.1409e-13
1344.17 1.2713e-13
1353.49 1.2338e-13
1366.01 1.1331e-13
1375.48 1.1541e-13
1385.01 1.1541e-13
1394.61 9.4462e-14
1404.28 9.4462e-14
1414.01 1.0746e-13
1423.82 1.0697e-13
1433.69 1.0846e-13
1443.62 1.115e-13
1446.95 1.1227e-13
1453.63 1.0896e-13
1463.71 1.0215e-13
1473.85 1.0239e-13
1484.07 1.0334e-13
1494.36 1.0358e-13
1504.71 9.8459e-14
1511.66 9.0003e-14
1518.64 9.4245e-14
1525.65 9.21e-14
1536.22 8.04e-14
1543.31 8.0031e-14
1554.01 7.7671e-14
1564.78 8.2463e-14
1575.63 8.7349e-14
1586.55 9.0003e-14
1593.87 9.1045e-14
1604.92 8.8768e-14
1616.05 8.7954e-14
1623.51 8.4773e-14
1634.76 8.8973e-14
1646.09 8.9384e-14
1653.69 8.5164e-14
1665.15 8.9796e-14
1672.84 8.1707e-14
1676.7 9.1466e-14
1684.43 9.2738e-14
1696.11 8.7954e-14
1703.94 8.5164e-14
1715.75 8.0958e-14
1723.67 8.0031e-14
1735.62 8.4189e-14
1743.63 8.2463e-14
1755.72 8.5557e-14
1763.82 8.04e-14
1776.05 8.0586e-14
1784.24 8.1707e-14
1796.61 8.4773e-14
1804.9 8.4383e-14
1813.23 7.857e-14
1825.8 7.9663e-14
1834.23 7.7314e-14
1846.94 7.1822e-14
1855.47 7.1988e-14
1864.04 7.3495e-14
1876.96 7.7136e-14
1885.62 7.1492e-14
1894.32 6.8748e-14
1903.07 7.232e-14
1916.26 6.9544e-14
1925.1 6.7493e-14
1933.99 6.9704e-14
1942.92 7.1988e-14
1956.38 6.7028e-14
1965.41 7.1988e-14
1974.49 7.3664e-14
1983.6 7.0026e-14
1992.76 6.8117e-14
2006.57 6.9704e-14
2015.83 6.7961e-14
2025.14 7.0026e-14
2034.48 6.6261e-14
2043.87 6.7804e-14
2053.31 6.2267e-14
2062.79 6.3717e-14
2072.31 6.9065e-14
2077.08 6.5653e-14
2086.67 6.7493e-14
2096.3 6.4159e-14
2105.98 6.4604e-14
2115.7 6.5052e-14
2125.47 6.5502e-14
2135.28 6.2124e-14
2145.13 6.241e-14
2155.03 6.4159e-14
2164.98 6.2267e-14
2174.97 6.1838e-14
2185.01 6.057e-14
2195.1 6.2554e-14
2205.23 6.113e-14
2215.41 5.8649e-14
2225.64 5.7182e-14
2235.91 5.9328e-14
2246.23 5.7446e-14
2256.6 5.5495e-14
2267.01 5.6268e-14
2277.48 5.6919e-14
2282.73 5.7446e-14
2293.26 5.4361e-14
2303.85 5.4643e-14
2314.48 5.2939e-14
2325.17 4.4773e-14
2335.9 5.0149e-14
2346.68 4.9035e-14
2357.51 5.1139e-14
2362.95 4.8293e-14
2373.85 4.888e-14
2384.81 4.6172e-14
2395.82 4.8153e-14
2406.88 4.6653e-14
2412.43 4.7098e-14
2423.56 4.867e-14
2434.75 4.7045e-14
2445.99 4.8615e-14
2457.28 4.7865e-14
2462.94 4.7441e-14
2474.31 4.6175e-14
2485.73 4.663e-14
2497.2 4.2066e-14
2502.96 4.7212e-14
2514.51 4.3483e-14
2520.31 4.4715e-14
2526.12 4.3509e-14
2537.78 4.3636e-14
2543.63 4.2852e-14
2555.37 4.4488e-14
2567.17 4.3702e-14
2573.08 4.5148e-14
2584.96 4.4659e-14
2596.89 4.4073e-14
2602.88 4.2885e-14
2614.89 4.2323e-14
2626.96 4.3336e-14
2633.02 4.3852e-14
2645.17 4.5842e-14
2657.38 4.6082e-14
2663.51 4.3219e-14
2675.8 4.4253e-14
2681.97 4.4064e-14
2694.35 4.24e-14
2706.79 4.2918e-14
2713.03 4.1474e-14
2725.55 4.1406e-14
2738.13 4.2397e-14
2744.44 3.8858e-14
2757.11 3.9153e-14
2763.47 3.9894e-14
2776.22 4.0944e-14
2782.62 3.9476e-14
2795.46 3.4326e-14
2801.91 3.5873e-14
2814.84 4.0091e-14
2827.84 4.0958e-14
2834.35 3.9581e-14
2847.44 3.8974e-14
2854.0 3.8012e-14
2867.17 3.9922e-14
2873.78 3.9569e-14
2887.05 3.9414e-14
2893.7 3.8976e-14
2907.06 4.0653e-14
2927.21 3.9495e-14
2947.5 3.8725e-14
2967.93 3.8765e-14
2988.51 3.8539e-14
3009.22 3.8402e-14
3030.08 3.8178e-14
3051.08 3.7868e-14
3072.23 3.7648e-14
3093.53 3.7429e-14
3107.81 3.7112e-14
3129.35 3.6475e-14
3151.04 3.6347e-14
3172.88 3.6053e-14
3187.53 3.4695e-14
3209.62 3.5135e-14
3231.87 3.4059e-14
3246.79 3.4878e-14
3269.29 3.5241e-14
3291.96 3.4877e-14
3307.15 3.4663e-14
3322.42 3.501e-14
3330.07 3.5266e-14
3337.75 3.4796e-14
3345.45 3.4095e-14
3353.16 3.3563e-14
3360.89 3.3731e-14
3368.64 3.39e-14
3376.4 3.209e-14
3384.18 3.285e-14
3391.99 3.4332e-14
3399.81 3.4984e-14
3407.64 3.2964e-14
3415.5 3.3513e-14
3423.37 3.4784e-14
3431.26 3.4718e-14
3439.17 3.4413e-14
3447.1 3.2277e-14
3455.05 3.2663e-14
3463.01 3.1494e-14
3471.0 3.284e-14
3479.0 3.1302e-14
3487.02 3.2118e-14
3495.06 3.2354e-14
3503.11 3.2591e-14
3511.19 3.2083e-14
3519.28 3.2244e-14
3527.39 3.145e-14
3535.53 3.2568e-14
3543.68 3.334e-14
3551.85 3.3354e-14
3560.03 3.2758e-14
3568.24 3.1586e-14
3576.47 3.0386e-14
3584.71 2.9638e-14
3592.97 2.9582e-14
3601.26 3.2077e-14
3609.56 3.1073e-14
3617.88 3.1229e-14
3626.22 3.2639e-14
3634.58 3.1471e-14
3636.1 2.8809e-14
3638.84 3.1877e-14
3641.58 3.5551e-14
3644.32 3.8123e-14
3647.06 3.1787e-14
3649.8 2.6528e-14
3652.55 2.8963e-14
3655.29 2.6464e-14
3658.03 3.1229e-14
3660.77 3.3262e-14
3663.51 3.8403e-14
3666.25 3.6115e-14
3668.99 3.6776e-14
3671.73 3.6842e-14
3674.47 3.4008e-14
3677.21 3.2105e-14
3679.95 3.3646e-14
3682.69 3.2726e-14
3685.43 3.318e-14
3688.17 3.1763e-14
3690.91 2.952e-14
3693.65 3.0014e-14
3696.39 2.7287e-14
3699.13 3.0821e-14
3701.87 3.1801e-14
3704.61 3.0798e-14
3707.35 3.2454e-14
3710.09 3.0296e-14
3712.83 2.7576e-14
3715.57 3.305e-14
3718.31 3.3524e-14
3721.05 4.2636e-14
3723.79 7.5678e-14
3726.53 1.361e-13
3729.27 1.9158e-13
3732.01 1.9836e-13
3734.75 1.4021e-13
3737.49 7.5341e-14
3740.23 4.3039e-14
3742.97 4.0935e-14
3745.71 3.682e-14
3748.45 3.3309e-14
3751.19 3.1209e-14
3753.93 2.7721e-14
3756.67 3.3273e-14
3759.41 3.5715e-14
3762.15 3.2886e-14
3764.89 3.3224e-14
3767.63 3.3818e-14
3770.37 3.4747e-14
3773.12 3.1407e-14
3775.86 3.497e-14
3778.6 3.7178e-14
3781.34 3.8421e-14
3784.08 3.9296e-14
3786.82 4.0689e-14
3789.56 3.9313e-14
3792.3 3.8222e-14
3795.04 3.4283e-14
3797.78 3.3197e-14
3800.52 3.3375e-14
3803.26 3.6455e-14
3806.0 3.7185e-14
3808.74 3.8171e-14
3811.48 3.7253e-14
3814.22 3.7236e-14
3816.96 3.6063e-14
3819.7 3.6683e-14
3822.44 3.8455e-14
3825.18 3.5814e-14
3827.92 3.3847e-14
3830.66 3.5622e-14
3833.4 3.234e-14
3836.14 3.3039e-14
3838.88 2.9214e-14
3841.62 3.5077e-14
3844.36 3.8103e-14
3847.1 3.8025e-14
3849.84 3.794e-14
3852.58 4.1149e-14
3855.32 3.9083e-14
3858.06 3.9617e-14
3860.8 4.0774e-14
3863.54 4.2426e-14
3866.28 4.4671e-14
3869.02 5.2541e-14
3871.76 5.5097e-14
3874.5 5.2114e-14
3877.24 4.2769e-14
3879.98 3.8051e-14
3882.72 4.0419e-14
3885.46 3.9411e-14
3888.2 3.9545e-14
3890.94 4.5786e-14
3893.69 4.1078e-14
3896.43 4.0455e-14
3899.17 3.94e-14
3901.91 3.803e-14
3904.65 3.874e-14
3907.39 4.1745e-14
3910.13 4.258e-14
3912.87 4.1173e-14
3915.61 3.8717e-14
3918.35 3.9261e-14
3921.09 3.9228e-14
3923.83 3.9476e-14
3926.57 3.9877e-14
3929.31 3.7314e-14
3932.05 3.6153e-14
3934.79 3.0095e-14
3937.53 3.208e-14
3940.27 3.4547e-14
3943.01 3.8388e-14
3945.75 3.7888e-14
3948.49 4.0785e-14
3951.23 3.6487e-14
3953.97 3.7106e-14
3956.71 3.7013e-14
3959.45 3.6817e-14
3962.19 3.5961e-14
3964.93 3.5652e-14
3967.67 3.6625e-14
3970.41 3.8351e-14
3973.15 3.6914e-14
3975.89 3.8305e-14
3978.63 3.2479e-14
3981.37 3.3399e-14
3984.11 3.6199e-14
3986.85 3.6346e-14
3989.59 4.0433e-14
3992.33 3.8441e-14
3995.07 4.0334e-14
3997.81 4.0599e-14
4000.55 4.0281e-14
4003.29 4.2823e-14
4006.03 4.4415e-14
4008.77 4.5679e-14
4011.52 4.5645e-14
4014.26 4.1936e-14
4017.0 4.2569e-14
4019.74 4.1702e-14
4022.48 3.9368e-14
4025.22 4.3635e-14
4027.96 4.3314e-14
4030.7 4.1667e-14
4033.44 4.2438e-14
4036.18 4.149e-14
4038.92 4.2705e-14
4041.66 4.0947e-14
4044.4 4.2581e-14
4047.14 4.1499e-14
4049.88 4.057e-14
4052.62 4.1659e-14
4055.36 3.9995e-14
4058.1 4.0132e-14
4060.84 4.0932e-14
4063.58 4.0378e-14
4066.32 4.1946e-14
4069.06 4.291e-14
4071.8 4.1094e-14
4074.54 4.0324e-14
4077.28 4.1626e-14
4080.02 4.1847e-14
4082.76 4.2925e-14
4085.5 4.0013e-14
4088.24 3.9817e-14
4090.98 3.862e-14
4093.72 3.9418e-14
4096.46 3.7355e-14
4099.2 3.9671e-14
4101.94 4.6201e-14
4104.68 4.6826e-14
4107.42 4.3558e-14
4110.16 3.8769e-14
4112.9 3.7708e-14
4115.64 3.6795e-14
4118.38 3.7071e-14
4121.12 3.7849e-14
4123.86 3.8884e-14
4126.6 3.8243e-14
4129.34 3.8276e-14
4132.08 3.8278e-14
4134.83 3.9177e-14
4137.57 3.8675e-14
4140.31 3.8268e-14
4143.05 3.7801e-14
4145.79 3.8668e-14
4148.53 3.9307e-14
4151.27 3.9843e-14
4154.01 3.8974e-14
4156.75 3.8593e-14
4159.49 3.8371e-14
4162.23 4.1132e-14
4164.97 4.2899e-14
4167.71 3.9714e-14
4170.45 3.8669e-14
4173.19 3.8576e-14
4175.93 3.7363e-14
4178.67 3.8393e-14
4181.41 3.8742e-14
4184.15 3.8264e-14
4186.89 3.9626e-14
4189.63 3.9782e-14
4192.37 3.7578e-14
4195.11 3.6862e-14
4197.85 3.8082e-14
4200.59 3.7884e-14
4203.33 3.796e-14
4206.07 3.8684e-14
4208.81 3.9462e-14
4211.55 3.778e-14
4214.29 3.7314e-14
4217.03 3.8636e-14
4219.77 3.8591e-14
4222.51 3.7995e-14
4225.25 3.7567e-14
4227.99 3.7805e-14
4230.73 3.6465e-14
4233.47 3.5616e-14
4236.21 3.6775e-14
4238.95 3.7535e-14
4241.69 3.7473e-14
4244.43 3.7132e-14
4247.17 3.732e-14
4249.91 3.6663e-14
4252.65 3.5991e-14
4255.4 3.6342e-14
4258.14 3.714e-14
4260.88 3.6522e-14
4263.62 3.6726e-14
4266.36 3.6897e-14
4269.1 3.8634e-14
4271.84 3.6507e-14
4274.58 3.4829e-14
4277.32 3.4971e-14
4280.06 3.6782e-14
4282.8 3.613e-14
4285.54 3.5326e-14
4288.28 3.7079e-14
4291.02 3.5283e-14
4293.76 3.5198e-14
4296.5 3.5659e-14
4299.24 3.4669e-14
4301.98 3.4022e-14
4304.72 3.4314e-14
4307.46 3.4636e-14
4310.2 3.3724e-14
4312.94 3.3145e-14
4315.68 3.3997e-14
4318.42 3.5301e-14
4321.16 3.4939e-14
4323.9 3.6825e-14
4326.64 3.4849e-14
4329.38 3.5252e-14
4332.12 3.5938e-14
4334.86 3.8314e-14
4337.6 4.1991e-14
4340.34 5.5185e-14
4343.08 6.0843e-14
4345.82 5.3571e-14
4348.56 3.9716e-14
4351.3 3.467e-14
4354.04 3.4155e-14
4356.78 3.4268e-14
4359.52 3.3357e-14
4362.26 3.7002e-14
4365.0 3.5711e-14
4367.74 3.6772e-14
4370.48 3.7274e-14
4373.22 3.7587e-14
4375.97 3.7956e-14
4378.71 3.609e-14
4381.45 3.4437e-14
4384.19 3.5181e-14
4386.93 3.5292e-14
4389.67 3.4625e-14
4392.41 3.4852e-14
4395.15 3.6248e-14
4397.89 3.5211e-14
4400.63 3.648e-14
4403.37 3.569e-14
4406.11 3.5082e-14
4408.85 3.5207e-14
4411.59 3.797e-14
4414.33 3.4198e-14
4417.07 3.5353e-14
4419.81 3.6725e-14
4422.55 3.5046e-14
4425.29 3.5029e-14
4428.03 3.6816e-14
4430.77 3.59e-14
4433.51 3.4624e-14
4436.25 3.7188e-14
4438.99 3.4105e-14
4441.73 3.6237e-14
4444.47 3.596e-14
4447.21 3.7273e-14
4449.95 3.529e-14
4452.69 3.8226e-14
4455.43 3.7748e-14
4458.17 3.4859e-14
4460.91 3.663e-14
4463.65 3.7989e-14
4466.39 3.649e-14
4469.13 3.4959e-14
4471.87 3.6869e-14
4474.61 3.7622e-14
4477.35 3.8887e-14
4480.09 3.7889e-14
4482.83 3.5158e-14
4485.57 3.5416e-14
4488.31 3.7302e-14
4491.05 3.4738e-14
4493.79 3.4321e-14
4496.54 3.6735e-14
4499.28 3.5915e-14
4502.02 3.501e-14
4504.76 3.7018e-14
4507.5 3.6092e-14
4510.24 3.5442e-14
4512.98 3.6136e-14
4515.72 3.6822e-14
4518.46 3.7262e-14
4521.2 3.5361e-14
4523.94 3.5843e-14
4526.68 3.6907e-14
4529.42 3.3281e-14
4532.16 3.4465e-14
4534.9 3.4562e-14
4537.64 3.7104e-14
4540.38 3.665e-14
4543.12 3.2925e-14
4545.86 3.5079e-14
4548.6 3.3309e-14
4551.34 3.4297e-14
4554.08 3.5288e-14
4556.82 3.491e-14
4559.56 3.5761e-14
4562.3 3.6981e-14
4565.04 3.5839e-14
4567.78 3.3928e-14
4570.52 3.5844e-14
4573.26 3.6633e-14
4576.0 3.5652e-14
4578.74 3.634e-14
4581.48 3.47e-14
4584.22 3.4825e-14
4586.96 3.4912e-14
4589.7 3.5395e-14
4592.44 3.5437e-14
4595.18 3.6563e-14
4597.92 3.5559e-14
4600.66 3.5348e-14
4603.4 3.6287e-14
4606.14 3.6232e-14
4608.88 3.4943e-14
4611.62 3.6081e-14
4614.36 3.606e-14
4617.11 3.6622e-14
4619.85 3.539e-14
4622.59 3.8146e-14
4625.33 3.7262e-14
4628.07 3.6375e-14
4630.81 3.6144e-14
4633.55 3.6079e-14
4636.29 3.6096e-14
4639.03 3.4404e-14
4641.77 3.5977e-14
4644.51 3.6756e-14
4647.25 3.6782e-14
4649.99 3.466e-14
4652.73 3.5001e-14
4655.47 3.5623e-14
4658.21 3.6523e-14
4660.95 3.6987e-14
4663.69 3.6391e-14
4666.43 3.5731e-14
4669.17 3.6473e-14
4671.91 3.5596e-14
4674.65 3.6336e-14
4677.39 3.4364e-14
4680.13 3.6984e-14
4682.87 3.6134e-14
4685.61 3.54e-14
4688.35 3.5442e-14
4691.09 3.5686e-14
4693.83 3.5894e-14
4696.57 3.6184e-14
4699.31 3.5997e-14
4702.05 3.4827e-14
4704.79 3.6002e-14
4707.53 3.4727e-14
4710.27 3.4053e-14
4713.01 3.5421e-14
4715.75 3.6288e-14
4718.49 3.5681e-14
4721.23 3.6306e-14
4723.97 3.6527e-14
4726.71 3.63e-14
4729.45 3.517e-14
4732.19 3.5016e-14
4734.94 3.3798e-14
4737.68 3.473e-14
4740.42 3.4086e-14
4743.16 3.595e-14
4745.9 3.5622e-14
4748.64 3.6777e-14
4751.38 3.4688e-14
4754.12 3.5258e-14
4756.86 3.3427e-14
4759.6 3.6005e-14
4762.34 3.474e-14
4765.08 3.5013e-14
4767.82 3.5275e-14
4770.56 3.441e-14
4773.3 3.4471e-14
4776.04 3.4642e-14
4778.78 3.5047e-14
4781.52 3.5869e-14
4784.26 3.5265e-14
4787.0 3.4493e-14
4789.74 3.4971e-14
4792.48 3.4591e-14
4795.22 3.4931e-14
4797.96 3.5498e-14
4800.7 3.6783e-14
4803.44 3.6521e-14
4806.18 3.4751e-14
4808.92 3.4989e-14
4811.66 3.4147e-14
4814.4 3.5572e-14
4817.14 3.5639e-14
4819.88 3.5739e-14
4822.62 3.4112e-14
4825.36 3.4726e-14
4828.1 3.4037e-14
4830.84 3.4453e-14
4833.58 3.544e-14
4836.32 3.4132e-14
4839.06 3.3598e-14
4841.8 3.3859e-14
4844.54 3.4067e-14
4847.28 3.3068e-14
4850.02 3.2798e-14
4852.76 3.3359e-14
4855.51 3.6434e-14
4858.25 5.168e-14
4860.99 8.0046e-14
4863.73 1.0168e-13
4866.47 9.1533e-14
4869.21 6.2723e-14
4871.95 3.8012e-14
4874.69 3.3259e-14
4877.43 3.2129e-14
4880.17 3.2037e-14
4882.91 3.2522e-14
4885.65 3.2682e-14
4888.39 3.2118e-14
4891.13 3.2176e-14
4893.87 3.231e-14
4896.61 3.2643e-14
4899.35 3.3192e-14
4902.09 3.4175e-14
4904.83 3.4622e-14
4907.57 3.3593e-14
4910.31 3.3236e-14
4913.05 3.3436e-14
4915.79 3.3405e-14
4918.53 3.4442e-14
4921.27 3.2335e-14
4924.01 3.2055e-14
4926.75 3.1151e-14
4929.49 3.3128e-14
4932.23 3.2411e-14
4934.97 3.3617e-14
4937.71 3.2983e-14
4940.45 3.1765e-14
4943.19 3.2717e-14
4945.93 3.3434e-14
4948.67 3.3537e-14
4951.41 3.4941e-14
4954.15 3.9065e-14
4956.89 5.7261e-14
4959.63 8.3101e-14
4962.37 9.253e-14
4965.11 7.5301e-14
4967.85 5.4215e-14
4970.59 4.1663e-14
4973.33 3.3325e-14
4976.08 3.4249e-14
4978.82 3.4329e-14
4981.56 3.3295e-14
4984.3 3.3598e-14
4987.04 3.3039e-14
4989.78 3.4226e-14
4992.52 3.3538e-14
4995.26 3.3435e-14
4998.0 3.6046e-14
5000.74 4.2266e-14
5003.48 7.4691e-14
5006.22 1.4179e-13
5008.96 2.0317e-13
5011.7 1.9294e-13
5014.44 1.2191e-13
5017.18 6.0539e-14
5019.92 3.9214e-14
5022.66 3.4879e-14
5025.4 3.2717e-14
5028.14 3.3516e-14
5030.88 3.2627e-14
5033.62 3.2251e-14
5036.36 3.1384e-14
5039.1 3.0861e-14
5041.84 3.0946e-14
5044.58 3.1287e-14
5047.32 3.0932e-14
5050.06 3.0786e-14
5052.8 3.2282e-14
5055.54 3.2137e-14
5058.28 3.2604e-14
5061.02 3.2236e-14
5063.76 3.2214e-14
5066.5 3.1921e-14
5069.24 3.1575e-14
5071.98 3.2196e-14
5074.72 3.2297e-14
5077.46 3.2599e-14
5080.2 3.1482e-14
5082.94 3.2614e-14
5085.68 3.2079e-14
5088.42 3.1589e-14
5091.16 3.231e-14
5093.9 3.1821e-14
5096.65 3.166e-14
5099.39 3.2135e-14
5102.13 3.1414e-14
5104.87 3.1097e-14
5107.61 3.1067e-14
5110.35 3.1485e-14
5113.09 3.1503e-14
5115.83 3.23e-14
5118.57 3.3163e-14
5121.31 3.3352e-14
5124.05 3.2325e-14
5126.79 3.1274e-14
5129.53 3.0681e-14
5132.27 3.057e-14
5135.01 3.0186e-14
5137.75 3.0452e-14
5140.49 3.0204e-14
5143.23 3.0161e-14
5145.97 3.0336e-14
5148.71 3.0431e-14
5151.45 3.1175e-14
5154.19 3.0659e-14
5156.93 3.0991e-14
5159.67 3.1444e-14
5162.41 3.1593e-14
5165.15 3.0948e-14
5167.89 2.9701e-14
5170.63 2.8612e-14
5173.37 2.8832e-14
5176.11 2.8416e-14
5178.85 2.8166e-14
5181.59 3.0024e-14
5184.33 3.0958e-14
5187.07 3.0434e-14
5189.81 2.9203e-14
5192.55 2.9138e-14
5195.29 3.0519e-14
5198.03 3.1039e-14
5200.77 3.1226e-14
5203.51 3.2027e-14
5206.25 3.1236e-14
5208.99 3.0147e-14
5211.73 2.96e-14
5214.48 2.9673e-14
5217.22 3.0506e-14
5219.96 3.016e-14
5222.7 3.032e-14
5225.44 3.1063e-14
5228.18 3.0374e-14
5230.92 2.8983e-14
5233.66 2.9947e-14
5236.4 3.0076e-14
5239.14 3.016e-14
5241.88 3.0544e-14
5244.62 2.998e-14
5247.36 3.0106e-14
5250.1 2.9948e-14
5252.84 3.027e-14
5255.58 2.9939e-14
5258.32 3.0548e-14
5261.06 3.1049e-14
5263.8 3.0825e-14
5266.54 3.0095e-14
5269.28 2.8687e-14
5272.02 2.825e-14
5274.76 2.9951e-14
5277.5 3.0764e-14
5280.24 3.0168e-14
5282.98 2.9679e-14
5285.72 3.0875e-14
5288.46 3.0704e-14
5291.2 2.9899e-14
5293.94 3.0457e-14
5296.68 3.0031e-14
5299.42 3.0727e-14
5302.16 3.0591e-14
5304.9 3.1849e-14
5307.64 3.1234e-14
5310.38 3.1067e-14
5313.12 2.9226e-14
5315.86 3.1717e-14
5318.6 3.1222e-14
5321.34 2.9539e-14
5324.08 2.9642e-14
5326.82 3.0731e-14
5329.56 2.9284e-14
5332.3 2.7683e-14
5335.05 2.8856e-14
5337.79 2.821e-14
5340.53 2.8822e-14
5343.27 3.0189e-14
5346.01 2.9283e-14
5348.75 3.0063e-14
5351.49 3.0775e-14
5354.23 3.1305e-14
5356.97 3.0227e-14
5359.71 3.1467e-14
5362.45 3.0475e-14
5365.19 2.9619e-14
5367.93 2.9584e-14
5370.67 2.868e-14
5373.41 3.0297e-14
5376.15 2.9409e-14
5378.89 2.8965e-14
5381.63 2.9062e-14
5384.37 3.0877e-14
5387.11 3.0538e-14
5389.85 2.9459e-14
5392.59 2.8488e-14
5395.33 2.8547e-14
5398.07 2.8869e-14
5400.81 2.9558e-14
5403.55 3.0746e-14
5406.29 3.0017e-14
5409.03 2.914e-14
5411.77 2.9273e-14
5414.51 2.9847e-14
5417.25 3.0481e-14
5419.99 2.9803e-14
5422.73 2.9659e-14
5425.47 3.0189e-14
5428.21 2.9399e-14
5430.95 2.9178e-14
5433.69 2.8736e-14
5436.43 2.8522e-14
5439.17 2.8868e-14
5441.91 2.9078e-14
5444.65 3.02e-14
5447.39 2.9714e-14
5450.13 2.9203e-14
5452.87 2.8319e-14
5455.62 2.898e-14
5458.36 2.8524e-14
5461.1 2.9929e-14
5463.84 2.966e-14
5466.58 2.9395e-14
5469.32 3.07e-14
5472.06 2.9092e-14
5474.8 2.9981e-14
5477.54 2.9736e-14
5480.28 3.0819e-14
5483.02 2.9738e-14
5485.76 3.0238e-14
5488.5 3.0349e-14
5491.24 3.0131e-14
5493.98 2.9549e-14
5496.72 2.916e-14
5499.46 2.8986e-14
5502.2 3.0124e-14
5504.94 2.9634e-14
5507.68 2.9327e-14
5510.42 2.9478e-14
5513.16 2.9664e-14
5515.9 2.9992e-14
5518.64 3.0534e-14
5521.38 2.9256e-14
5524.12 2.9474e-14
5526.86 2.9657e-14
5529.6 2.8903e-14
5532.34 2.892e-14
5535.08 2.9826e-14
5537.82 3.005e-14
5540.56 2.7587e-14
5543.3 2.8565e-14
5546.04 2.8594e-14
5548.78 2.8967e-14
5551.52 2.9431e-14
5554.26 2.9665e-14
5557.0 2.795e-14
5559.74 2.9216e-14
5562.48 2.9285e-14
5565.22 2.979e-14
5567.96 2.8444e-14
5570.7 2.9516e-14
5573.44 2.863e-14
5576.19 2.8641e-14
5578.93 2.8723e-14
5581.67 2.8782e-14
5584.41 2.8052e-14
5587.15 2.9443e-14
5589.89 2.7986e-14
5592.63 2.8238e-14
5595.37 2.6942e-14
5598.11 2.8713e-14
5600.85 2.8123e-14
5603.59 2.8584e-14
5606.33 2.8204e-14
5609.07 2.9279e-14
5611.81 2.8562e-14
5614.55 2.7974e-14
5617.29 2.7568e-14
5620.03 2.9406e-14
5622.77 2.7342e-14
5625.51 2.9163e-14
5628.25 3.0047e-14
5630.99 2.948e-14
5633.73 2.9951e-14
5636.47 2.8312e-14
5639.21 2.9015e-14
5641.95 2.9192e-14
5644.69 2.9e-14
5647.43 3.0042e-14
5650.17 2.8986e-14
5652.91 2.8117e-14
5655.65 2.7335e-14
5658.39 2.8128e-14
5661.13 2.6572e-14
5663.87 2.8552e-14
5666.61 2.7761e-14
5669.35 2.8602e-14
5672.09 2.7591e-14
5674.83 2.7935e-14
5677.57 2.9438e-14
5680.31 2.9097e-14
5683.05 2.9345e-14
5685.79 2.7527e-14
5688.53 2.6973e-14
5691.27 2.6614e-14
5694.01 2.6323e-14
5696.76 2.7761e-14
5699.5 2.7868e-14
5702.24 2.8198e-14
5704.98 2.7453e-14
5707.72 2.8157e-14
5710.46 2.7393e-14
5713.2 2.7267e-14
5715.94 2.7613e-14
5718.68 2.7863e-14
5721.42 2.8457e-14
5724.16 2.7746e-14
5726.9 2.7994e-14
5729.64 2.8323e-14
5732.38 2.7643e-14
5735.12 2.7421e-14
5737.86 2.7434e-14
5740.6 2.8105e-14
5743.34 2.839e-14
5746.08 2.8655e-14
5748.82 2.7821e-14
5751.56 2.8496e-14
5754.3 2.8458e-14
5757.04 2.8178e-14
5759.78 2.7713e-14
5762.52 2.7975e-14
5765.26 2.7713e-14
5768.0 2.7422e-14
5770.74 2.7793e-14
5773.48 2.7434e-14
5776.22 2.7416e-14
5778.96 2.7753e-14
5781.7 2.6726e-14
5784.44 2.7081e-14
5787.18 2.7334e-14
5789.92 2.8122e-14
5792.66 2.8317e-14
5795.4 2.8626e-14
5798.14 2.8236e-14
5800.88 2.755e-14
5803.62 2.7094e-14
5806.36 2.7183e-14
5809.1 2.7718e-14
5811.84 2.7498e-14
5814.59 2.7753e-14
5817.33 2.7584e-14
5820.07 2.7744e-14
5822.81 2.8379e-14
5825.55 2.7532e-14
5828.29 2.742e-14
5831.03 2.8014e-14
5833.77 2.8113e-14
5836.51 2.901e-14
5839.25 2.8802e-14
5841.99 3.0043e-14
5844.73 2.8211e-14
5847.47 2.8146e-14
5850.21 2.7812e-14
5852.95 2.7591e-14
5855.69 2.8157e-14
5858.43 2.8006e-14
5861.17 2.7681e-14
5863.91 2.6648e-14
5866.65 2.7328e-14
5869.39 2.948e-14
5872.13 3.0328e-14
5874.87 3.1602e-14
5877.61 3.3691e-14
5880.35 3.326e-14
5883.09 2.9304e-14
5885.83 2.7923e-14
5888.57 2.6443e-14
5891.31 2.6023e-14
5894.05 2.5304e-14
5896.79 2.6374e-14
5899.53 2.6436e-14
5902.27 2.6966e-14
5905.01 2.6348e-14
5907.75 2.7469e-14
5910.49 2.6871e-14
5913.23 2.6538e-14
5915.97 2.7244e-14
5918.71 2.6053e-14
5921.45 2.6542e-14
5924.19 2.6642e-14
5926.93 2.6613e-14
5929.67 2.7098e-14
5932.41 2.8538e-14
5935.16 2.7126e-14
5937.9 2.6149e-14
5940.64 2.6681e-14
5943.38 2.6977e-14
5946.12 2.7325e-14
5948.86 2.6111e-14
5951.6 2.5557e-14
5954.34 2.557e-14
5957.08 2.6708e-14
5959.82 2.6416e-14
5962.56 2.6428e-14
5965.3 2.6164e-14
5968.04 2.6497e-14
5970.78 2.6636e-14
5973.52 2.611e-14
5976.26 2.5872e-14
5979.0 2.6632e-14
5981.74 2.6687e-14
5984.48 2.6404e-14
5987.22 2.6594e-14
5989.96 2.6656e-14
5992.7 2.7501e-14
5995.44 2.7029e-14
5998.18 2.6896e-14
6000.92 2.549e-14
6003.66 2.6682e-14
6006.4 2.7047e-14
6009.14 2.5803e-14
6011.88 2.6517e-14
6014.62 2.6629e-14
6017.36 2.5509e-14
6020.1 2.5511e-14
6022.84 2.5764e-14
6025.58 2.5794e-14
6028.32 2.6567e-14
6031.06 2.7853e-14
6033.8 2.7146e-14
6036.54 2.7692e-14
6039.28 2.6317e-14
6042.02 2.6013e-14
6044.76 2.6203e-14
6047.5 2.6181e-14
6050.24 2.7779e-14
6052.98 2.7143e-14
6055.73 2.7281e-14
6058.47 2.6491e-14
6061.21 2.5956e-14
6063.95 2.7321e-14
6066.69 2.6623e-14
6069.43 2.7084e-14
6072.17 2.5925e-14
6074.91 2.6279e-14
6077.65 2.6233e-14
6080.39 2.5941e-14
6083.13 2.5911e-14
6085.87 2.6148e-14
6088.61 2.4992e-14
6091.35 2.5541e-14
6094.09 2.6493e-14
6096.83 2.5217e-14
6099.57 2.5139e-14
6102.31 2.7049e-14
6105.05 2.6202e-14
6107.79 2.6282e-14
6110.53 2.6542e-14
6113.27 2.641e-14
6116.01 2.6934e-14
6118.75 2.6695e-14
6121.49 2.6574e-14
6124.23 2.6628e-14
6126.97 2.66e-14
6129.71 2.5933e-14
6132.45 2.6033e-14
6135.19 2.6285e-14
6137.93 2.7068e-14
6140.67 2.667e-14
6143.41 2.5292e-14
6146.15 2.589e-14
6148.89 2.633e-14
6151.63 2.5472e-14
6154.37 2.5489e-14
6157.11 2.602e-14
6159.85 2.5702e-14
6162.59 2.5394e-14
6165.33 2.5239e-14
6168.07 2.4447e-14
6170.81 2.4644e-14
6173.55 2.5105e-14
6176.3 2.4363e-14
6179.04 2.5491e-14
6181.78 2.5887e-14
6184.52 2.5097e-14
6187.26 2.4938e-14
6190.0 2.5291e-14
6192.74 2.5021e-14
6195.48 2.4458e-14
6198.22 2.5001e-14
6200.96 2.6035e-14
6203.7 2.523e-14
6206.44 2.5092e-14
6209.18 2.5624e-14
6211.92 2.5899e-14
6214.66 2.5421e-14
6217.4 2.532e-14
6220.14 2.4327e-14
6222.88 2.5117e-14
6225.62 2.5393e-14
6228.36 2.5581e-14
6231.1 2.4461e-14
6233.84 2.4672e-14
6236.58 2.5597e-14
6239.32 2.6817e-14
6242.06 2.7731e-14
6244.8 2.7226e-14
6247.54 2.6209e-14
6250.28 2.4047e-14
6253.02 2.4448e-14
6255.76 2.4634e-14
6258.5 2.4452e-14
6261.24 2.5333e-14
6263.98 2.3704e-14
6266.72 2.4775e-14
6269.46 2.5186e-14
6272.2 2.3927e-14
6274.94 2.4825e-14
6277.68 2.4702e-14
6280.42 2.4428e-14
6283.16 2.4228e-14
6285.9 2.5162e-14
6288.64 2.5584e-14
6291.38 2.333e-14
6294.12 2.2329e-14
6296.87 2.6957e-14
6299.61 2.9324e-14
6302.35 3.1142e-14
6305.09 2.8619e-14
6307.83 2.8684e-14
6310.57 2.6609e-14
6313.31 2.4103e-14
6316.05 2.5833e-14
6318.79 2.5983e-14
6321.53 2.5556e-14
6324.27 2.4882e-14
6327.01 2.5486e-14
6329.75 2.493e-14
6332.49 2.4843e-14
6335.23 2.4188e-14
6337.97 2.5052e-14
6340.71 2.5672e-14
6343.45 2.5095e-14
6346.19 2.4855e-14
6348.93 2.5296e-14
6351.67 2.5681e-14
6354.41 2.5076e-14
6357.15 2.5714e-14
6359.89 2.4771e-14
6362.63 2.5029e-14
6365.37 2.3913e-14
6368.11 2.4461e-14
6370.85 2.6062e-14
6373.59 2.4989e-14
6376.33 2.5757e-14
6379.07 2.5774e-14
6381.81 2.5276e-14
6384.55 2.5309e-14
6387.29 2.5038e-14
6390.03 2.569e-14
6392.77 2.574e-14
6395.51 2.6139e-14
6398.25 2.5799e-14
6400.99 2.4208e-14
6403.73 2.4702e-14
6406.47 2.5129e-14
6409.21 2.5378e-14
6411.95 2.5389e-14
6414.7 2.4815e-14
6417.44 2.4971e-14
6420.18 2.4786e-14
6422.92 2.4807e-14
6425.66 2.5165e-14
6428.4 2.5508e-14
6431.14 2.4454e-14
6433.88 2.5344e-14
6436.62 2.4709e-14
6439.36 2.4707e-14
6442.1 2.6497e-14
6444.84 2.6488e-14
6447.58 2.606e-14
6450.32 2.4622e-14
6453.06 2.512e-14
6455.8 2.3207e-14
6458.54 2.3056e-14
6461.28 2.3826e-14
6464.02 2.4744e-14
6466.76 2.3575e-14
6469.5 2.2521e-14
6472.24 2.3097e-14
6474.98 2.3109e-14
6477.72 2.4112e-14
6480.46 2.4536e-14
6483.2 2.3788e-14
6485.94 2.3773e-14
6488.68 2.3486e-14
6491.42 2.2693e-14
6494.16 2.2957e-14
6496.9 2.2715e-14
6499.64 2.2044e-14
6502.38 2.3512e-14
6505.12 2.3609e-14
6507.86 2.4366e-14
6510.6 2.3426e-14
6513.34 2.3632e-14
6516.08 2.5534e-14
6518.82 2.3295e-14
6521.56 2.4804e-14
6524.3 2.3859e-14
6527.04 2.2906e-14
6529.78 2.4831e-14
6532.52 2.3403e-14
6535.27 2.6254e-14
6538.01 2.3822e-14
6540.75 2.4392e-14
6543.49 2.4005e-14
6546.23 2.721e-14
6548.97 3.1203e-14
6551.71 3.2722e-14
6554.45 3.3861e-14
6557.19 4.1741e-14
6559.93 9.1724e-14
6562.67 1.9493e-13
6565.41 2.6165e-13
6568.15 2.199e-13
6570.89 1.1648e-13
6573.63 5.1094e-14
6576.37 3.1666e-14
6579.11 2.9415e-14
6581.85 3.825e-14
6584.59 4.8004e-14
6587.33 5.0558e-14
6590.07 4.0554e-14
6592.81 3.0377e-14
6595.55 2.5875e-14
6598.29 2.499e-14
6601.03 2.426e-14
6603.77 2.5375e-14
6606.51 2.5102e-14
6609.25 2.5616e-14
6611.99 2.478e-14
6614.73 2.5263e-14
6617.47 2.4456e-14
6620.21 2.3908e-14
6622.95 2.4081e-14
6625.69 2.5011e-14
6628.43 2.514e-14
6631.17 2.4998e-14
6633.91 2.4406e-14
6636.65 2.3613e-14
6639.39 2.4701e-14
6642.13 2.291e-14
6644.87 2.4844e-14
6647.61 2.3327e-14
6650.35 2.3548e-14
6653.09 2.527e-14
6655.84 2.5144e-14
6658.58 2.4792e-14
6661.32 2.5646e-14
6664.06 2.3842e-14
6666.8 2.3691e-14
6669.54 2.3328e-14
6672.28 2.4235e-14
6675.02 2.4821e-14
6677.76 2.7545e-14
6680.5 2.6501e-14
6683.24 2.766e-14
6685.98 2.452e-14
6688.72 2.5921e-14
6691.46 2.4899e-14
6694.2 2.4222e-14
6696.94 2.4912e-14
6699.68 2.3331e-14
6702.42 2.5445e-14
6705.16 2.4297e-14
6707.9 2.358e-14
6710.64 2.4514e-14
6713.38 3.2031e-14
6716.12 4.8691e-14
6718.86 5.9788e-14
6721.6 5.7085e-14
6724.34 3.9376e-14
6727.08 3.2928e-14
6729.82 3.8821e-14
6732.56 4.865e-14
6735.3 4.7344e-14
6738.04 3.6506e-14
6740.78 2.7513e-14
6743.52 2.3984e-14
6746.26 2.4577e-14
6749.0 2.4206e-14
6751.74 2.4191e-14
6754.48 2.3548e-14
6757.22 2.3592e-14
6759.96 2.3171e-14
6762.7 2.2738e-14
6765.44 2.3317e-14
6768.18 2.3879e-14
6770.92 2.3786e-14
6773.66 2.4066e-14
6776.41 2.3628e-14
6779.15 2.3483e-14
6781.89 2.4226e-14
6784.63 2.3482e-14
6787.37 2.2974e-14
6790.11 2.3368e-14
6792.85 2.3615e-14
6795.59 2.3979e-14
6798.33 2.3761e-14
6801.07 2.4152e-14
6803.81 2.3952e-14
6814.82 2.3385e-14
6830.52 2.3653e-14
6846.27 2.2795e-14
6862.05 2.2845e-14
6877.87 2.279e-14
6893.73 2.2474e-14
6909.62 2.2627e-14
6925.55 2.2573e-14
6941.51 2.2884e-14
6957.52 2.304e-14
6973.55 2.3037e-14
6989.63 2.2981e-14
7005.74 2.2404e-14
7021.89 2.2145e-14
7038.08 2.271e-14
7054.3 2.3236e-14
7070.57 2.1934e-14
7086.86 2.2494e-14
7103.2 2.1677e-14
7119.58 2.1279e-14
7135.99 2.1081e-14
7152.44 2.1274e-14
7168.93 2.1369e-14
7185.45 2.0784e-14
7202.01 2.0449e-14
7218.62 2.146e-14
7235.26 2.131e-14
7251.94 2.0774e-14
7268.65 2.0771e-14
7285.41 2.0961e-14
7302.21 2.125e-14
7319.04 2.1004e-14
7335.91 2.149e-14
7352.82 2.1389e-14
7369.77 2.0996e-14
7386.76 2.1932e-14
7403.79 2.1728e-14
7420.86 2.1036e-14
7437.96 2.1326e-14
7455.11 2.1274e-14
7472.3 2.1419e-14
7489.52 2.122e-14
7506.79 2.1463e-14
7524.09 2.1659e-14
7541.44 2.1606e-14
7558.82 2.1307e-14
7576.25 2.1109e-14
7593.71 2.0912e-14
7611.21 2.0575e-14
7628.76 2.0337e-14
7646.35 2.0428e-14
7663.97 2.0099e-14
7681.64 1.9912e-14
7699.35 1.9909e-14
7717.1 1.9861e-14
7734.89 1.9496e-14
7752.72 1.9404e-14
7770.59 1.9716e-14
7788.5 1.9132e-14
7806.46 1.9174e-14
7824.45 1.9891e-14
7842.49 1.9125e-14
7860.57 1.9612e-14
7878.69 1.9565e-14
7896.85 1.9698e-14
7915.06 1.9335e-14
7933.3 1.8893e-14
7951.59 1.8165e-14
7969.92 1.8757e-14
7988.29 1.8841e-14
8006.71 1.8538e-14
8025.16 1.9231e-14
8043.67 1.9361e-14
8062.21 1.9181e-14
8080.79 1.857e-14
8099.42 1.7978e-14
8118.09 1.8866e-14
8136.81 1.8994e-14
8155.57 1.8389e-14
8174.37 1.8134e-14
8193.21 1.8007e-14
8212.09 1.8637e-14
8231.03 1.8127e-14
8250.0 1.8761e-14
8269.02 1.8932e-14
8288.08 1.8371e-14
8307.19 1.8242e-14
8326.34 1.8281e-14
8345.53 1.7821e-14
8364.77 1.8234e-14
8384.05 1.7898e-14
8403.38 1.8228e-14
8422.75 1.7934e-14
8442.17 1.7564e-14
8461.63 1.7847e-14
8481.14 1.7599e-14
8500.69 1.7924e-14
8520.28 1.7594e-14
8539.93 1.7511e-14
8559.61 1.672e-14
8579.34 1.7627e-14
8599.12 1.7183e-14
8618.94 1.6945e-14
8638.81 1.7578e-14
8658.73 1.6669e-14
8678.69 1.5953e-14
8698.69 1.5987e-14
8718.74 1.7287e-14
8738.85 1.7047e-14
8758.99 1.5943e-14
8779.18 1.712e-14
8799.42 1.7039e-14
8819.71 1.7155e-14
8840.04 1.7231e-14
8860.41 1.6759e-14
8880.84 1.5855e-14
8901.31 1.6372e-14
8921.83 1.637e-14
8942.4 1.6519e-14
8963.01 1.6066e-14
8983.67 1.577e-14
9004.39 1.6702e-14
9025.14 1.3668e-14
9045.95 1.6968e-14
9066.8 1.7281e-14
9087.7 1.583e-14
9108.65 1.5611e-14
9129.65 1.5898e-14
9150.7 1.6006e-14
9171.79 1.6152e-14
9192.93 1.5781e-14
9214.13 1.5962e-14
9235.37 1.4455e-14
9256.65 1.5309e-14
9278.0 1.6552e-14
9299.38 1.5552e-14
9320.82 1.5875e-14
9342.3 1.5836e-14
9363.84 1.5616e-14
9385.43 1.5722e-14
9407.06 1.5397e-14
9428.75 1.5717e-14
9450.48 1.5534e-14
9472.27 1.5748e-14
9494.11 1.5673e-14
9515.99 1.5349e-14
9537.93 1.5171e-14
9559.92 1.4353e-14
9581.95 1.5447e-14
9604.04 1.5303e-14
9626.18 1.5301e-14
9648.37 1.5193e-14
9670.61 1.512e-14
9692.91 1.5258e-14
9715.25 1.508e-14
9737.65 1.494e-14
9760.09 1.4834e-14
9782.6 1.4696e-14
9805.15 1.4898e-14
9827.75 1.4758e-14
9850.4 1.4756e-14
9873.11 1.4652e-14
9895.87 1.4615e-14
9918.68 1.4546e-14
9941.55 1.4577e-14
9964.47 1.4541e-14
9987.44 1.4438e-14
10033.53 1.4202e-14
10079.85 1.3906e-14
10126.38 1.4258e-14
10173.11 1.4089e-14
10220.08 1.4084e-14
10267.25 1.4079e-14
10290.91 1.398e-14
10506.4 1.339e-14
10701.74 1.2743e-14
10900.69 1.203e-14
11103.35 1.1621e-14
11309.77 1.1279e-14
11493.54 1.1098e-14
11707.23 1.0746e-14
11897.46 1.031e-14
12090.78 1.0052e-14
12287.23 9.8007e-15
12486.88 9.4898e-15
12689.78 9.21e-15
12895.97 8.9384e-15
13105.51 8.7349e-15
13287.83 8.4383e-15
13503.74 8.2273e-15
13691.6 8.0215e-15
13914.07 7.7314e-15
14107.63 7.3834e-15
14303.89 7.232e-15
14502.88 7.1988e-15
14704.63 6.9544e-15
14909.2 6.9704e-15
15116.61 6.9384e-15
15291.64 6.9865e-15
15504.36 6.8906e-15
15683.9 6.7183e-15
15902.09 6.4455e-15
16086.23 6.4455e-15
16310.01 6.4011e-15
16498.86 6.2699e-15
16689.91 6.2124e-15
16883.18 6.085e-15
17118.05 5.9602e-15
17316.25 5.705e-15
17516.77 5.5368e-15
17719.61 5.312e-15
17883.57 5.1081e-15
18090.64 4.8446e-15
18300.12 4.7234e-15
18512.03 4.5631e-15
18683.31 4.3477e-15
18899.66 4.2389e-15
19118.51 4.1616e-15
19295.42 4.0203e-15
19518.83 3.8482e-15
19699.45 3.7347e-15
19881.73 3.6162e-15
20111.94 3.5421e-15
20298.04 3.4218e-15
20485.86 3.3749e-15
20723.06 3.2829e-15
20914.82 3.2008e-15
21108.35 3.1424e-15
21303.65 3.0638e-15
21500.78 2.994e-15
21699.71 2.8857e-15
21900.5 2.8396e-15
22103.15 2.7559e-15
22307.66 2.6808e-15
22514.08 2.6077e-15
22722.38 2.5366e-15
22879.9 2.2922e-15
23091.59 2.2712e-15
23305.26 2.001e-15
23520.92 1.8848e-15
23683.94 1.9066e-15
23903.1 1.7549e-15
24124.25 1.6953e-15
24291.49 1.6721e-15
24516.24 1.5569e-15
24686.19 1.5285e-15
24914.59 1.319e-15
25087.31 1.3009e-15
25319.45 1.3009e-15
25494.94 1.286e-15
25671.65 1.2979e-15
25909.2 1.2684e-15
26088.81 1.2597e-15
26330.19 1.2253e-15
26512.72 1.2141e-15
26696.48 1.1865e-15
26881.55 1.1702e-15
27130.26 1.1541e-15
27318.34 1.1279e-15
27507.68 1.1073e-15
27698.34 1.0821e-15
27890.36 1.0697e-15
28083.67 1.0477e-15
28278.35 1.031e-15
28474.36 1.0099e-15
28671.75 9.8459e-16
28870.48 9.7332e-16
29070.62 9.5336e-16
29272.11 9.3381e-16
29475.03 9.1676e-16
29679.33 9.0211e-16
29885.07 8.836e-16
30092.21 8.6748e-16
30300.78 8.4968e-16
30510.84 8.3996e-16
30722.31 8.2653e-16
30935.29 8.1331e-16
31078.07 8.0215e-16
31293.51 7.8933e-16
31510.41 7.7671e-16
31728.81 7.6605e-16
31875.29 7.5554e-16
32096.22 7.4689e-16
32318.72 7.4004e-16
32467.89 7.4175e-16
32692.93 7.6605e-16
32919.57 8.4384e-16
33071.5 8.3418e-16
33300.77 7.2821e-16
33531.58 6.8432e-16
33686.34 6.5805e-16
33919.87 6.4011e-16
34076.42 6.2554e-16
34312.65 6.1271e-16
34471.02 6.0153e-16
34709.94 5.8919e-16
34870.18 5.7844e-16
35111.87 5.6788e-16
35273.93 5.5623e-16
35518.46 5.4608e-16
35682.39 5.3611e-16
35929.75 5.2633e-16
36095.58 5.1672e-16
36262.18 5.0729e-16
36513.56 4.9689e-16
36682.09 4.8782e-16
36936.34 4.7781e-16
37106.86 4.6909e-16
37278.12 4.6053e-16
37536.54 4.5005e-16
37709.79 4.4489e-16
37883.84 4.3677e-16
38058.69 4.288e-16
38322.52 4.2195e-16
38499.4 4.152e-16
38677.14 4.0668e-16
38855.65 3.9926e-16
39124.96 3.9288e-16
39305.58 3.866e-16
39487.0 3.7867e-16
39669.25 3.7261e-16
39944.25 3.6413e-16
40128.61 3.5913e-16
40313.82 3.5339e-16
40499.93 3.4614e-16
40686.86 3.414e-16
40874.64 3.3594e-16
41063.3 3.3133e-16
41252.87 3.2603e-16
41538.8 3.2082e-16
41730.57 3.1496e-16
41923.17 3.1064e-16
42116.67 3.0497e-16
42311.05 3.0148e-16
42506.39 2.9666e-16
42702.57 2.9259e-16
42899.66 2.8201e-16
43097.71 2.7243e-16
43296.63 2.7181e-16
43496.46 2.6197e-16
43697.27 2.566e-16
43898.95 2.5308e-16
44101.56 2.4505e-16
44305.11 2.4225e-16
44509.65 2.3837e-16
44715.08 2.3241e-16
44921.46 2.3188e-16
45128.84 2.2712e-16
45337.13 2.2246e-16
45546.39 2.2144e-16
45651.37 2.1891e-16
45862.12 2.1343e-16
46073.8 2.1294e-16
46286.45 2.0954e-16
46500.13 2.0666e-16
46714.76 2.0524e-16
46930.37 2.0289e-16
47147.02 2.001e-16
47255.7 1.9964e-16
47473.81 1.9645e-16
47692.92 1.9465e-16
47913.1 1.9242e-16
48134.24 1.8978e-16
48245.19 1.8935e-16
48467.86 1.8675e-16
48691.62 1.8419e-16
48916.35 1.825e-16
49142.12 1.8041e-16
49255.4 1.7917e-16
49482.79 1.7671e-16
49711.18 1.759e-16
49940.61 1.7478e-16
50055.79 1.7444e-16
50286.81 1.7457e-16
50518.91 1.7388e-16
50752.08 1.7438e-16
50869.12 1.7443e-16
50986.38 1.7448e-16
51103.91 1.7413e-16
51221.7 1.7377e-16
51339.77 1.7381e-16
51458.12 1.7385e-16
51576.79 1.7428e-16
51695.68 1.7472e-16
51814.84 1.7516e-16
51934.28 1.7478e-16
52053.98 1.7441e-16
52173.97 1.7484e-16
52294.24 1.7446e-16
52414.84 1.7488e-16
52535.66 1.7531e-16
52656.76 1.7573e-16
52778.13 1.7615e-16
52899.79 1.7576e-16
53021.73 1.7537e-16
53144.01 1.7578e-16
53266.51 1.762e-16
53389.29 1.7661e-16
53512.36 1.7661e-16
53635.71 1.7702e-16
53759.34 1.7743e-16
53883.26 1.7784e-16
54007.52 1.7825e-16
54132.02 1.7824e-16
54256.79 1.7824e-16
54381.86 1.7864e-16
54507.21 1.7945e-16
54632.86 1.7985e-16
54758.79 1.7984e-16
54885.07 1.8066e-16
55011.59 1.8105e-16
55138.39 1.8145e-16
55265.49 1.8269e-16
55392.88 1.8351e-16
55520.56 1.8348e-16
55648.6 1.843e-16
55776.88 1.8555e-16
55905.45 1.8595e-16
56034.31 1.8677e-16
56163.48 1.8803e-16
56292.94 1.8843e-16
56422.7 1.897e-16
56552.82 1.9097e-16
56683.18 1.9225e-16
56813.84 1.931e-16
56944.79 1.9439e-16
57076.06 1.9614e-16
57207.62 1.979e-16
57339.55 1.9968e-16
57471.72 2.0101e-16
57604.2 2.0328e-16
57736.98 2.051e-16
57870.07 2.0741e-16
58003.46 2.0975e-16
58137.17 2.126e-16
58271.24 2.1499e-16
58405.56 2.1791e-16
58540.19 2.2137e-16
58675.13 2.2489e-16
58810.38 2.2952e-16
58945.94 2.3316e-16
59034.44 1.9081e-16
59343.19 2.5531e-16
59651.94 2.9143e-16
59960.69 3.666e-16
60269.45 4.4593e-16
60578.2 3.1713e-16
60886.95 3.5025e-16
61195.71 4.8517e-16
61504.46 7.0009e-16
61813.2 1.022e-15
62121.96 1.0663e-15
62430.71 1.0329e-15
62739.46 7.3838e-16
63048.22 5.4076e-16
63356.97 6.2266e-16
63665.73 4.8633e-16
63974.48 4.3236e-16
64283.22 3.5697e-16
64591.99 2.5049e-16
64900.73 3.1698e-16
65209.48 1.8855e-16
65518.24 2.6255e-16
65826.99 3.5016e-16
66135.74 2.8122e-16
66444.5 3.3522e-16
66753.25 3.5003e-16
67062.0 3.5686e-16
67370.76 2.473e-16
67679.51 1.943e-16
67988.26 2.348e-16
68297.02 2.6253e-16
68605.77 1.4876e-16
68914.52 2.4996e-16
69223.27 1.8124e-16
69532.03 2.546e-16
69840.78 2.7452e-16
70149.53 2.2039e-16
70458.28 1.7935e-16
70767.04 1.5104e-16
71075.79 1.604e-16
71384.54 3.1963e-16
71693.29 1.5818e-16
72002.05 2.2955e-16
72310.8 1.2226e-16
72619.55 2.1589e-16
72928.31 1.0816e-16
73237.06 2.438e-16
73545.81 1.9909e-16
73854.56 3.1537e-16
74163.31 3.4701e-16
74472.07 4.1884e-16
74780.82 3.4498e-16
75069.37 5.4294e-16
75089.57 5.0321e-16
75398.33 5.0226e-16
75688.09 7.5886e-16
75707.08 5.196e-16
76306.83 7.5483e-16
76925.56 7.5094e-16
77544.3 6.2699e-16
78163.03 6.4791e-16
78781.78 5.653e-16
79400.51 4.6114e-16
80019.24 4.7284e-16
80637.98 4.0371e-16
81256.72 2.8047e-16
81875.45 3.2202e-16
82494.19 3.0807e-16
83112.92 3.0333e-16
83731.66 2.8406e-16
84350.39 3.5115e-16
84969.13 3.6637e-16
85587.86 3.4904e-16
86206.61 3.8694e-16
86825.33 3.3178e-16
87444.07 2.638e-16
88062.81 2.3116e-16
88681.54 1.3879e-16
89300.27 1.9055e-16
89919.01 2.3389e-16
90537.74 1.7425e-16
91156.49 9.7191e-17
91775.22 1.0283e-16
92393.96 1.399e-16
93012.7 1.4945e-16
93631.43 1.5228e-16
94250.16 1.4212e-16
94868.89 1.3675e-16
95487.64 1.1211e-16
96106.37 1.0135e-16
96725.1 1.1975e-16
97343.85 1.1595e-16
97962.59 1.135e-16
98581.32 1.0262e-16
99200.06 1.2127e-16
99818.75 9.8321e-17
100437.54 9.7387e-17
101056.23 1.0381e-16
101675.03 1.0444e-16
102293.72 1.0549e-16
102912.51 1.0412e-16
103531.21 9.8078e-17
104149.91 1.2104e-16
104768.69 1.9987e-16
105387.38 2.2303e-16
106006.19 1.3443e-16
106624.88 1.291e-16
107243.57 1.3525e-16
107862.36 1.2972e-16
108481.06 1.328e-16
109099.85 1.2478e-16
109718.54 1.4262e-16
110337.33 1.7873e-16
110956.03 1.9722e-16
111574.73 3.1437e-16
112193.52 4.1658e-16
112812.21 3.9655e-16
113431.01 3.0169e-16
114049.7 2.22e-16
114668.49 1.7758e-16
115287.18 1.5207e-16
115905.87 1.4474e-16
116524.68 1.2442e-16
117143.37 1.2364e-16
117762.15 1.3366e-16
118380.85 1.1938e-16
118999.65 1.3293e-16
119618.34 1.3995e-16
120237.03 1.2584e-16
120855.83 1.2124e-16
121474.52 1.2025e-16
122093.31 1.1599e-16
122712.0 1.3555e-16
123330.71 1.3387e-16
123949.5 1.3891e-16
124568.19 1.3489e-16
125186.98 1.3106e-16
125805.68 1.4619e-16
126424.47 1.5652e-16
127043.17 1.7926e-16
127661.86 2.7285e-16
128280.65 2.9025e-16
128899.34 1.6096e-16
129518.14 1.1106e-16
130136.83 9.9091e-17
130755.52 9.4465e-17
131374.32 8.0443e-17
131993.02 9.6379e-17
132611.81 9.9849e-17
133230.49 9.417e-17
133849.29 8.9862e-17
134467.99 8.5729e-17
135086.69 8.9999e-17
135705.48 8.9804e-17
136324.16 9.8775e-17
136942.96 8.6672e-17
137561.66 9.1996e-17
138180.45 8.3773e-17
138799.14 8.1735e-17
139417.84 8.0706e-17
140036.63 8.4616e-17
140655.33 9.6013e-17
141274.11 8.2261e-17
141892.81 8.2382e-17
142511.6 9.5598e-17
143130.3 8.3989e-17
143748.98 9.8984e-17
144367.79 9.1135e-17
144900.19 7.5918e-17
145813.82 6.7448e-17
146727.57 9.2353e-17
147641.21 6.9879e-17
148554.85 8.249e-17
149468.5 7.6087e-17
150382.24 7.4152e-17
151295.89 7.4833e-17
152209.52 8.4216e-17
153123.26 8.0186e-17
154036.91 1.0646e-16
154950.54 2.8372e-16
155864.19 3.4103e-16
156777.93 1.3107e-16
157691.58 8.5108e-17
158605.21 7.9691e-17
159518.95 8.6817e-17
160432.6 8.942e-17
161346.23 8.5381e-17
162259.97 9.6641e-17
163173.62 1.0667e-16
164087.26 1.1835e-16
165000.9 1.1351e-16
165914.66 1.0589e-16
166828.28 1.0255e-16
167741.93 1.0327e-16
168655.57 1.1055e-16
169569.32 1.175e-16
170482.96 1.175e-16
171396.61 1.1551e-16
172310.35 1.1247e-16
173223.99 1.1574e-16
174137.63 1.2027e-16
175051.38 1.0647e-16
175965.01 1.0921e-16
176878.66 1.0354e-16
177792.29 1.101e-16
178706.03 1.0819e-16
179619.68 9.505e-17
180533.31 1.0199e-16
181447.05 8.6899e-17
182360.7 1.0907e-16
183274.33 1.0701e-16
184188.08 1.0129e-16
185101.72 1.0902e-16
186015.37 1.4874e-16
186929.0 3.3165e-16
187842.75 2.2488e-16
188756.39 1.1631e-16
189670.03 1.1548e-16
190583.78 1.1715e-16
191497.43 1.1163e-16
192411.05 1.0924e-16
193324.7 1.1269e-16
194238.46 1.2121e-16
195152.09 1.0745e-16
196065.74 9.913e-17
196979.48 1.0243e-16
197893.11 9.8465e-17
198806.76 9.7214e-17
199720.41 8.9847e-17
200634.15 1.0527e-16
201547.78 1.0872e-16
202461.43 1.0974e-16
203375.17 1.2209e-16
204822.01 1.1788e-16
206570.76 1.1805e-16
208320.52 1.2339e-16
210071.29 1.1509e-16
211822.94 1.2344e-16
213575.48 1.1891e-16
215329.03 1.186e-16
217083.49 1.1922e-16
218838.92 1.2792e-16
220595.36 1.3171e-16
222352.68 1.3152e-16
224111.02 1.2818e-16
225870.25 1.3182e-16
227630.46 1.255e-16
229391.68 1.3477e-16
231153.8 1.3563e-16
232916.92 1.3428e-16
234681.03 1.3219e-16
236446.04 1.33e-16
238212.14 1.3507e-16
239979.05 1.4128e-16
241747.02 1.4155e-16
243516.03 1.3197e-16
245285.92 1.3734e-16
247056.79 1.3894e-16
248828.68 1.4066e-16
250601.45 1.4772e-16
252375.33 1.5023e-16
254150.11 1.4815e-16
255925.98 1.4861e-16
257702.72 1.5076e-16
259480.51 1.6086e-16
261259.26 1.5465e-16
263039.0 1.4891e-16
264819.75 1.5082e-16
266601.52 1.4903e-16
268384.25 1.4935e-16
270167.99 1.5233e-16
271952.72 1.5215e-16
273738.44 1.5461e-16
275525.29 1.5346e-16
277313.01 1.5418e-16
279101.72 1.5628e-16
280891.53 1.634e-16
282682.36 1.6326e-16
284474.07 1.5638e-16
286266.86 1.5774e-16
288060.68 1.6037e-16
289855.59 1.6111e-16
291651.47 1.6406e-16
293448.28 1.648e-16
295246.25 1.6662e-16
297045.14 1.6799e-16
298845.1 1.6603e-16
300646.08 1.6457e-16
302448.06 1.698e-16
304251.13 1.6365e-16
306055.2 1.6714e-16
307860.26 1.6507e-16
309666.42 1.6805e-16
311473.69 1.649e-16
313281.93 1.6546e-16
315091.2 1.7351e-16
316901.43 1.7171e-16
318712.88 1.7419e-16
320525.23 1.7514e-16
322338.73 1.7734e-16
324153.16 1.728e-16
325968.78 1.7695e-16
327785.43 1.7785e-16
329603.01 1.817e-16
331421.74 1.8685e-16
333241.57 2.5688e-16
335062.45 3.3588e-16
336884.39 2.1272e-16
338707.36 1.9498e-16
340531.35 1.8247e-16
342356.47 1.7922e-16
344182.77 1.8098e-16
346009.94 2.2784e-16
347838.33 3.3681e-16
