# col1 col2
# An Atlas of Galaxy Spectral Energy Distributions from the Ultraviolet to the Mid-Infrared
# Brown et al. (2014)
# http://dx.doi.org/10.5072/03/529D3551F0117
# 
# Column 1 : Restframe Wavelength (Angstrom)
# Column 2 : Flux per unit wavelength (ergs/s/cm^2/Angstrom)
# Column 3 : Observed wavelength (Angstrom)
# Column 4 : Source (0 = model, 1 = Optical Spectrum, 2 = Akari, 3 = Spitzer IRS)
# 
100.06 4.8778e-23
101.92 7.1817e-23
104.05 9.599e-23
105.99 1.3068e-22
107.96 1.8081e-22
109.97 2.794e-22
114.09 4.6798e-22
118.1 7.3152e-22
121.13 3.0285e-21
125.1 4.3373e-21
127.13 5.0029e-21
128.02 5.473e-21
131.0 6.6715e-21
131.91 8.1325e-21
134.05 9.1669e-21
136.86 1.2683e-20
140.04 1.5039e-20
142.98 4.6262e-20
146.98 1.325e-19
151.1 1.564e-19
154.98 1.8588e-19
158.95 2.2142e-19
161.91 2.4959e-19
166.06 2.9595e-19
169.93 3.4216e-19
173.09 3.8214e-19
177.12 4.3674e-19
180.0 4.822e-19
182.08 5.1431e-19
185.89 5.824e-19
191.1 6.7643e-19
194.21 7.434e-19
197.82 8.2647e-19
201.96 9.2518e-19
204.77 1.0005e-18
210.02 1.0845e-18
215.9 1.3099e-18
219.92 1.4462e-18
222.98 1.5284e-18
227.12 1.6835e-18
229.75 2.6682e-18
234.02 4.6156e-18
240.03 6.0565e-18
246.19 6.0985e-18
251.92 6.8901e-18
257.19 6.155e-18
260.17 7.2648e-18
263.79 7.9657e-18
268.7 8.3603e-18
273.69 8.7544e-18
278.78 9.0829e-18
283.96 9.6433e-18
289.91 9.8226e-18
295.98 1.0477e-17
300.79 1.082e-17
307.8 1.1837e-17
317.88 1.325e-17
328.29 1.4799e-17
338.27 1.6152e-17
347.75 1.7548e-17
356.67 2.1788e-17
365.82 3.0706e-17
375.2 3.4612e-17
384.82 3.398e-17
394.7 5.2267e-17
404.82 7.1982e-17
414.25 8.1889e-17
421.95 8.4377e-17
429.8 9.062e-17
440.82 1.2029e-16
451.09 1.3907e-16
459.47 1.3811e-16
470.18 1.5857e-16
480.02 1.9871e-16
490.07 1.8977e-16
500.34 2.5777e-16
506.13 2.3726e-16
511.99 3.9014e-16
520.31 4.02e-16
529.98 4.0853e-16
539.84 3.6747e-16
549.87 3.8925e-16
560.1 5.5109e-16
570.51 6.6715e-16
579.78 7.0344e-16
590.56 7.6953e-16
600.15 6.9219e-16
609.9 7.1322e-16
619.81 9.6211e-16
629.89 9.599e-16
640.12 1.1226e-15
650.52 1.1408e-15
658.05 1.092e-15
665.67 1.28e-15
674.93 1.41e-15
684.32 1.2683e-15
695.44 1.5461e-15
705.12 1.3068e-15
716.58 1.7508e-15
726.54 1.8417e-15
734.96 1.9152e-15
745.18 1.9285e-15
755.55 1.9871e-15
764.3 1.8502e-15
774.93 2.144e-15
785.71 2.0287e-15
794.81 2.2606e-15
805.86 2.3946e-15
815.2 2.473e-15
824.64 2.5955e-15
834.18 2.1195e-15
845.79 2.6867e-15
855.58 2.7116e-15
865.49 2.8855e-15
875.51 2.9732e-15
885.65 3.0565e-15
895.9 3.1349e-15
904.19 3.1421e-15
914.66 3.1421e-15
925.26 7.8745e-15
935.97 1.325e-14
944.63 1.9374e-14
955.57 2.4167e-14
964.41 2.6499e-14
975.58 8.7745e-15
984.6 2.1539e-14
996.01 2.199e-14
1005.22 2.9732e-14
1014.52 3.0285e-14
1023.91 1.8803e-14
1035.77 2.5132e-14
1045.35 3.9014e-14
1055.02 3.8126e-14
1064.78 3.1421e-14
1074.64 3.5994e-14
1084.58 3.0495e-14
1094.62 3.7951e-14
1104.74 3.6663e-14
1114.97 3.5746e-14
1125.28 3.1785e-14
1135.7 3.9375e-14
1146.2 3.6917e-14
1154.15 3.8302e-14
1164.83 3.8568e-14
1175.61 2.6377e-14
1183.76 3.7517e-14
1194.71 2.9595e-14
1205.76 2.4056e-14
1214.12 1.9241e-14
1225.36 2.9801e-14
1233.85 3.9375e-14
1245.27 4.1901e-14
1253.9 4.0572e-14
1265.5 3.7344e-14
1274.27 4.4898e-14
1286.06 4.6583e-14
1294.98 3.8568e-14
1303.95 3.8657e-14
1316.02 4.6262e-14
1325.14 4.4486e-14
1334.33 4.0665e-14
1343.58 4.6369e-14
1356.01 4.5105e-14
1365.41 4.1231e-14
1374.87 4.2386e-14
1384.4 4.2484e-14
1394.0 3.4294e-14
1403.66 3.4532e-14
1413.39 4.0015e-14
1426.47 4.0107e-14
1436.36 4.0947e-14
1442.99 4.2386e-14
1446.31 4.2877e-14
1456.34 4.1613e-14
1466.43 3.8925e-14
1476.6 3.9285e-14
1483.41 4.0015e-14
1493.7 4.0293e-14
1504.05 3.8302e-14
1510.99 3.4772e-14
1517.97 3.6663e-14
1524.97 3.5911e-14
1535.54 3.1133e-14
1546.19 3.1133e-14
1553.32 3.0355e-14
1564.09 3.2526e-14
1574.93 3.4772e-14
1585.85 3.616e-14
1593.17 3.6663e-14
1604.21 3.5994e-14
1615.33 3.5828e-14
1626.53 3.4692e-14
1634.04 3.6663e-14
1645.36 3.7087e-14
1656.77 3.5337e-14
1664.42 3.7517e-14
1672.1 3.398e-14
1675.95 3.8568e-14
1683.69 3.9285e-14
1695.36 3.7258e-14
1703.19 3.616e-14
1714.99 3.4294e-14
1726.88 3.398e-14
1734.85 3.6077e-14
1746.88 3.5418e-14
1754.94 3.7002e-14
1763.04 3.4852e-14
1775.26 3.4932e-14
1783.45 3.5664e-14
1795.82 3.7344e-14
1804.11 3.7258e-14
1816.61 3.4532e-14
1825.0 3.5255e-14
1833.42 3.4216e-14
1846.13 3.1712e-14
1854.65 3.1932e-14
1863.21 3.2751e-14
1876.13 3.4772e-14
1884.79 3.2079e-14
1893.49 3.0919e-14
1906.61 3.2751e-14
1915.41 3.1494e-14
1924.25 3.0635e-14
1933.13 3.1932e-14
1946.53 3.2978e-14
1955.52 3.0706e-14
1969.07 3.336e-14
1978.16 3.4294e-14
1982.72 3.2526e-14
1996.47 3.1712e-14
2005.68 3.2751e-14
2014.94 3.1858e-14
2024.24 3.3054e-14
2033.58 3.1277e-14
2042.97 3.2153e-14
2057.13 2.9527e-14
2066.63 3.0285e-14
2076.16 3.3054e-14
2085.75 3.2451e-14
2095.38 3.0848e-14
2105.05 3.1133e-14
2114.76 3.1494e-14
2124.52 3.1785e-14
2134.33 3.0146e-14
2144.18 3.0355e-14
2154.08 3.1421e-14
2164.02 3.0495e-14
2174.01 3.0425e-14
2184.05 2.9801e-14
2194.13 3.0919e-14
2204.26 3.0285e-14
2214.43 2.9055e-14
2224.65 2.8394e-14
2234.92 2.9595e-14
2245.24 2.8657e-14
2255.6 2.7621e-14
2266.01 2.8201e-14
2276.47 2.8595e-14
2286.98 2.8994e-14
2297.53 2.7311e-14
2302.83 2.7628e-14
2313.46 2.663e-14
2324.14 2.2254e-14
2334.87 2.5202e-14
2345.64 2.4686e-14
2356.47 2.5911e-14
2367.35 2.4406e-14
2372.8 2.4747e-14
2383.76 2.3364e-14
2394.76 2.4466e-14
2405.81 2.3692e-14
2416.92 2.4023e-14
2422.49 2.4982e-14
2433.67 2.4136e-14
2444.9 2.5101e-14
2456.19 2.4758e-14
2467.53 2.4532e-14
2473.22 2.3864e-14
2484.63 2.4087e-14
2496.1 2.1568e-14
2507.62 2.4538e-14
2513.4 2.2483e-14
2519.2 2.3166e-14
2525.0 2.2536e-14
2536.66 2.2746e-14
2542.51 2.2331e-14
2554.24 2.3385e-14
2566.03 2.2907e-14
2577.88 2.3768e-14
2583.82 2.3497e-14
2595.74 2.3176e-14
2607.73 2.2598e-14
2613.74 2.2237e-14
2625.8 2.2914e-14
2637.92 2.3342e-14
2644.0 2.4612e-14
2656.21 2.4899e-14
2662.33 2.3078e-14
2674.62 2.3781e-14
2686.96 2.3728e-14
2693.16 2.2765e-14
2705.59 2.319e-14
2718.08 2.2301e-14
2724.34 2.2251e-14
2736.92 2.2875e-14
2743.23 2.0768e-14
2755.89 2.1009e-14
2762.24 2.15e-14
2774.99 2.2205e-14
2787.8 2.1256e-14
2794.23 1.8344e-14
2807.13 1.9255e-14
2813.6 2.1805e-14
2826.58 2.2469e-14
2833.1 2.1707e-14
2846.18 2.1312e-14
2852.74 2.0637e-14
2865.91 2.2063e-14
2872.51 2.2013e-14
2885.77 2.1863e-14
2892.42 2.1714e-14
2912.47 2.2897e-14
2932.66 2.2173e-14
2952.99 2.1771e-14
2966.62 2.1923e-14
2987.18 2.1825e-14
3007.89 2.1878e-14
3028.74 2.178e-14
3049.73 2.1682e-14
3070.87 2.1635e-14
3092.16 2.1588e-14
3106.43 2.154e-14
3127.97 2.1149e-14
3149.65 2.1151e-14
3171.48 2.1057e-14
3193.46 2.0158e-14
3208.2 2.0581e-14
3230.44 1.9794e-14
3252.83 2.0634e-14
3267.85 2.1019e-14
3290.5 2.0829e-14
3313.31 2.0688e-14
3320.95 2.1025e-14
3328.6 2.1221e-14
3336.28 2.1418e-14
3343.97 2.0314e-14
3351.68 2.0884e-14
3359.4 2.0598e-14
3367.15 2.0504e-14
3374.91 1.9137e-14
3382.69 1.9583e-14
3390.49 2.084e-14
3398.3 2.0937e-14
3406.14 2.0181e-14
3413.99 2.0322e-14
3421.86 2.094e-14
3429.75 2.0559e-14
3437.65 2.0845e-14
3445.58 1.8968e-14
3453.52 2.0895e-14
3461.48 1.9412e-14
3469.46 1.9819e-14
3477.46 1.9191e-14
3485.48 1.9504e-14
3493.51 1.9505e-14
3501.56 1.9686e-14
3509.64 1.9462e-14
3517.73 1.9019e-14
3525.83 1.9419e-14
3533.96 2.0148e-14
3542.11 2.0666e-14
3550.27 2.0667e-14
3558.46 2.0104e-14
3566.66 2.0479e-14
3574.88 1.8721e-14
3583.12 1.8128e-14
3591.39 1.7675e-14
3592.51 1.8014e-14
3595.2 2.7135e-14
3597.88 1.799e-14
3600.57 1.4427e-14
3603.26 2.2967e-14
3605.95 1.756e-14
3608.64 2.3206e-14
3611.33 2.0025e-14
3614.02 1.9575e-14
3616.71 1.7193e-14
3619.4 2.0287e-14
3622.09 1.73e-14
3624.77 1.9056e-14
3627.46 1.9563e-14
3630.15 1.9912e-14
3632.84 1.7056e-14
3635.53 2.0382e-14
3638.22 1.7576e-14
3640.91 2.2291e-14
3643.6 2.2894e-14
3646.29 2.3499e-14
3648.98 2.2049e-14
3651.66 1.975e-14
3654.35 2.079e-14
3657.04 1.5477e-14
3659.73 1.3339e-14
3662.42 2.2152e-14
3665.11 2.1067e-14
3667.8 2.0341e-14
3670.49 2.0571e-14
3673.18 1.7067e-14
3675.87 1.4783e-14
3678.56 1.8188e-14
3681.24 1.3166e-14
3683.93 1.9844e-14
3686.62 2.296e-14
3689.31 1.9142e-14
3692.0 2.2432e-14
3694.69 1.7227e-14
3697.38 2.0322e-14
3700.07 2.4925e-14
3702.76 1.7781e-14
3705.45 2.0961e-14
3708.13 1.4134e-14
3710.82 1.8618e-14
3713.51 1.5368e-14
3716.2 1.9621e-14
3718.89 1.9975e-14
3721.58 2.4927e-14
3724.27 3.7524e-14
3726.96 5.5223e-14
3729.65 6.8169e-14
3732.34 6.6284e-14
3735.02 5.4218e-14
3737.71 3.3908e-14
3740.4 2.4875e-14
3743.09 1.8587e-14
3745.78 2.5785e-14
3748.47 2.3104e-14
3751.16 1.9193e-14
3753.85 2.0672e-14
3756.54 2.1045e-14
3759.23 2.4436e-14
3761.91 2.3682e-14
3764.6 2.3726e-14
3767.29 2.2366e-14
3769.98 2.2406e-14
3772.67 2.3323e-14
3775.36 2.4585e-14
3778.05 2.2882e-14
3780.74 2.5906e-14
3783.43 2.3547e-14
3786.12 2.6212e-14
3788.81 2.4966e-14
3791.49 2.3049e-14
3794.18 2.6955e-14
3796.87 2.6413e-14
3799.56 2.3076e-14
3802.25 1.9867e-14
3804.94 2.3312e-14
3807.63 2.3106e-14
3810.32 2.3679e-14
3813.01 2.8353e-14
3815.7 2.6501e-14
3818.38 2.8597e-14
3821.07 2.5764e-14
3823.76 2.853e-14
3826.45 2.6397e-14
3829.14 2.3816e-14
3831.83 1.9834e-14
3834.52 2.3696e-14
3837.21 2.1564e-14
3839.9 2.0664e-14
3842.59 2.236e-14
3845.27 2.39e-14
3847.96 2.2462e-14
3850.65 2.4383e-14
3853.34 2.5358e-14
3856.03 2.5677e-14
3858.72 2.5432e-14
3861.41 2.6115e-14
3864.1 2.6276e-14
3866.79 2.8327e-14
3869.48 2.7967e-14
3872.16 2.8562e-14
3874.85 3.1013e-14
3877.54 2.9145e-14
3880.23 2.6338e-14
3882.92 2.4411e-14
3885.61 2.6305e-14
3888.3 2.7076e-14
3890.99 2.2993e-14
3893.68 2.4263e-14
3896.37 2.4368e-14
3899.05 2.3946e-14
3901.74 2.4823e-14
3904.43 2.6581e-14
3907.12 2.4619e-14
3909.81 2.4677e-14
3912.5 2.834e-14
3915.19 2.9759e-14
3917.88 2.8422e-14
3920.57 2.5383e-14
3923.26 2.4117e-14
3925.95 2.5317e-14
3928.63 2.6786e-14
3931.32 2.6069e-14
3934.01 2.3765e-14
3936.7 2.5832e-14
3939.39 2.4995e-14
3942.08 2.6319e-14
3944.77 2.753e-14
3947.46 2.8006e-14
3950.15 3.0271e-14
3952.84 2.738e-14
3955.52 2.6374e-14
3958.21 2.7697e-14
3960.9 2.7659e-14
3963.59 2.1199e-14
3966.28 2.1595e-14
3968.97 2.144e-14
3971.66 2.032e-14
3974.35 2.2376e-14
3977.04 2.2618e-14
3979.73 1.9465e-14
3982.41 2.3012e-14
3985.1 2.8519e-14
3987.79 2.7605e-14
3990.48 3.0739e-14
3993.17 3.0256e-14
3995.86 3.1102e-14
3998.55 3.0464e-14
4001.24 2.7618e-14
4003.93 2.9565e-14
4006.62 2.737e-14
4009.31 3.236e-14
4011.99 3.0205e-14
4014.68 2.8044e-14
4017.37 3.0012e-14
4020.06 3.1634e-14
4022.75 3.0121e-14
4025.44 2.9164e-14
4028.13 3.1446e-14
4030.82 3.2373e-14
4033.51 3.0214e-14
4036.2 3.1306e-14
4038.88 3.1906e-14
4041.57 2.9966e-14
4044.26 3.04e-14
4046.95 2.563e-14
4049.64 3.0605e-14
4052.33 3.2623e-14
4055.02 2.8765e-14
4057.71 3.0304e-14
4060.4 2.9114e-14
4063.09 3.056e-14
4065.77 3.315e-14
4068.46 3.0002e-14
4071.15 2.8866e-14
4073.84 3.2681e-14
4076.53 2.9697e-14
4079.22 3.2342e-14
4081.91 2.723e-14
4084.6 2.8968e-14
4087.29 2.7111e-14
4089.98 2.9858e-14
4092.66 2.5232e-14
4095.35 2.6017e-14
4098.04 2.753e-14
4100.73 2.5224e-14
4103.42 2.6769e-14
4106.11 2.6669e-14
4108.8 2.8519e-14
4111.49 2.6427e-14
4114.18 2.7567e-14
4116.87 2.7681e-14
4119.56 2.4632e-14
4122.24 2.9035e-14
4124.93 3.1561e-14
4127.62 2.8437e-14
4130.31 2.6561e-14
4133.0 2.6771e-14
4135.69 2.7014e-14
4138.38 2.8604e-14
4141.07 2.9476e-14
4143.76 3.0909e-14
4146.45 2.8415e-14
4149.13 2.8194e-14
4151.82 3.1328e-14
4154.51 2.731e-14
4157.2 2.8551e-14
4159.89 2.8312e-14
4162.58 2.6572e-14
4165.27 2.8988e-14
4167.96 3.0957e-14
4170.65 2.9882e-14
4173.34 2.9403e-14
4176.02 2.986e-14
4178.71 2.7298e-14
4181.4 3.1032e-14
4184.09 2.8e-14
4186.78 2.7809e-14
4189.47 2.8907e-14
4192.16 2.6945e-14
4194.85 2.7042e-14
4197.54 2.8775e-14
4200.23 2.9113e-14
4202.91 2.9102e-14
4205.6 2.9772e-14
4208.29 2.9785e-14
4210.98 2.7811e-14
4213.67 3.0833e-14
4216.36 3.2467e-14
4219.05 2.9454e-14
4221.74 3.0271e-14
4224.43 3.1815e-14
4227.12 3.1481e-14
4229.81 2.9004e-14
4232.49 3.0335e-14
4235.18 2.8135e-14
4237.87 2.5371e-14
4240.56 3.0324e-14
4243.25 3.084e-14
4245.94 3.0077e-14
4248.63 2.6725e-14
4251.32 2.7764e-14
4254.01 2.9349e-14
4256.7 2.997e-14
4259.38 2.8805e-14
4262.07 2.7236e-14
4264.76 2.69e-14
4267.45 2.9175e-14
4270.14 2.9266e-14
4272.83 2.7236e-14
4275.52 2.6499e-14
4278.21 2.742e-14
4280.9 2.9014e-14
4283.59 2.8405e-14
4286.27 2.8593e-14
4288.96 2.9936e-14
4291.65 2.8414e-14
4294.34 2.7339e-14
4297.03 2.8661e-14
4299.72 2.6203e-14
4302.41 2.6193e-14
4305.1 2.8134e-14
4307.79 2.6192e-14
4310.48 2.4602e-14
4313.16 2.5458e-14
4315.85 2.6497e-14
4318.54 2.6096e-14
4321.23 2.9756e-14
4323.92 2.8765e-14
4326.61 2.5391e-14
4329.3 2.5544e-14
4331.99 2.7176e-14
4334.68 2.8432e-14
4337.37 2.8789e-14
4340.06 2.9922e-14
4342.74 3.2253e-14
4345.43 3.1473e-14
4348.12 2.7837e-14
4350.81 2.6241e-14
4353.5 2.7406e-14
4356.19 2.7776e-14
4358.88 2.711e-14
4361.57 2.6636e-14
4364.26 2.7136e-14
4366.95 2.7979e-14
4369.63 2.8552e-14
4372.32 2.9189e-14
4375.01 2.8499e-14
4377.7 2.7971e-14
4380.39 2.7939e-14
4383.08 2.5881e-14
4385.77 2.6701e-14
4388.46 2.6919e-14
4391.15 2.5411e-14
4393.84 2.7314e-14
4396.52 2.8399e-14
4399.21 2.9185e-14
4401.9 2.7914e-14
4404.59 2.5417e-14
4407.28 3.0401e-14
4409.97 2.9736e-14
4412.66 2.7542e-14
4415.35 2.7583e-14
4418.04 2.8243e-14
4420.73 2.7282e-14
4423.41 2.7557e-14
4426.1 2.8782e-14
4428.79 2.912e-14
4431.48 2.8528e-14
4434.17 2.9251e-14
4436.86 2.8906e-14
4439.55 2.8808e-14
4442.24 2.7816e-14
4444.93 2.795e-14
4447.62 2.932e-14
4450.31 2.8912e-14
4452.99 2.9223e-14
4455.68 2.907e-14
4458.37 2.8169e-14
4461.06 2.6942e-14
4463.75 2.8055e-14
4466.44 2.639e-14
4469.13 2.6598e-14
4471.82 2.7323e-14
4474.51 3.0093e-14
4477.2 3.0937e-14
4479.88 3.1077e-14
4482.57 3.1755e-14
4485.26 2.9655e-14
4487.95 2.9409e-14
4490.64 2.9453e-14
4493.33 2.8636e-14
4496.02 2.7947e-14
4498.71 2.8841e-14
4501.4 2.9067e-14
4504.09 3.1167e-14
4506.77 3.0788e-14
4509.46 2.8455e-14
4512.15 2.8388e-14
4514.84 2.8567e-14
4517.53 3.0422e-14
4520.22 2.9381e-14
4522.91 3.073e-14
4525.6 2.7298e-14
4528.29 2.583e-14
4530.98 3.0508e-14
4533.66 2.8688e-14
4536.35 2.7863e-14
4539.04 2.8406e-14
4541.73 2.9875e-14
4544.42 3.1041e-14
4547.11 3.0057e-14
4549.8 2.8161e-14
4552.49 2.8403e-14
4555.18 2.6572e-14
4557.87 2.8701e-14
4560.56 2.8967e-14
4563.24 2.9656e-14
4565.93 2.9157e-14
4568.62 2.9011e-14
4571.31 2.917e-14
4574.0 2.8005e-14
4576.69 2.4889e-14
4579.38 2.8782e-14
4582.07 2.8597e-14
4584.76 3.0318e-14
4587.45 2.8006e-14
4590.13 2.8332e-14
4592.82 2.759e-14
4595.51 2.8585e-14
4598.2 2.9568e-14
4600.89 2.8152e-14
4603.58 3.0865e-14
4606.27 3.0275e-14
4608.96 2.948e-14
4611.65 2.9018e-14
4614.34 2.9481e-14
4617.02 2.8373e-14
4619.71 3.1036e-14
4622.4 2.909e-14
4625.09 2.973e-14
4627.78 2.7424e-14
4630.47 2.8918e-14
4633.16 2.8911e-14
4635.85 2.7049e-14
4638.54 2.6586e-14
4641.23 2.7864e-14
4643.91 3.0217e-14
4646.6 2.7857e-14
4649.29 2.837e-14
4651.98 2.7784e-14
4654.67 2.8929e-14
4657.36 2.9154e-14
4660.05 3.0311e-14
4662.74 3.0208e-14
4665.43 3.1504e-14
4668.12 2.9241e-14
4670.81 2.8616e-14
4673.49 2.6048e-14
4676.18 3.0471e-14
4678.87 2.6677e-14
4681.56 2.8083e-14
4684.25 2.7923e-14
4686.94 2.803e-14
4689.63 2.8006e-14
4692.32 2.7884e-14
4695.01 2.8212e-14
4697.7 2.8566e-14
4700.38 3.0763e-14
4703.07 2.6926e-14
4705.76 2.8013e-14
4708.45 2.8045e-14
4711.14 2.7711e-14
4713.83 2.8361e-14
4716.52 2.7752e-14
4719.21 3.071e-14
4721.9 2.977e-14
4724.59 2.9757e-14
4727.27 3.1075e-14
4729.96 2.8847e-14
4732.65 2.8698e-14
4735.34 2.8952e-14
4738.03 2.6184e-14
4740.72 2.9632e-14
4743.41 3.0105e-14
4746.1 3.0636e-14
4748.79 2.9349e-14
4751.48 3.1506e-14
4754.16 3.0629e-14
4756.85 2.8409e-14
4759.54 2.781e-14
4762.23 2.8364e-14
4764.92 2.8043e-14
4767.61 3.0637e-14
4770.3 2.7039e-14
4772.99 2.7396e-14
4775.68 2.668e-14
4778.37 2.7724e-14
4781.06 3.0382e-14
4783.74 2.8591e-14
4786.43 2.5405e-14
4789.12 2.8553e-14
4791.81 2.7431e-14
4794.5 2.9597e-14
4797.19 2.5068e-14
4799.88 2.781e-14
4802.57 2.9299e-14
4805.26 2.905e-14
4807.95 2.6427e-14
4810.63 2.5542e-14
4813.32 2.8816e-14
4816.01 2.9446e-14
4818.7 2.8378e-14
4821.39 2.5906e-14
4824.08 2.7985e-14
4826.77 2.7879e-14
4829.46 2.8122e-14
4832.15 2.9549e-14
4834.84 2.8938e-14
4837.52 2.5981e-14
4840.21 2.7787e-14
4842.9 2.8465e-14
4845.59 2.6082e-14
4848.28 2.7307e-14
4850.97 2.8346e-14
4853.66 2.8818e-14
4856.35 3.2986e-14
4859.04 4.0008e-14
4861.73 4.5592e-14
4864.41 4.6485e-14
4867.1 3.8492e-14
4869.79 3.5325e-14
4872.48 2.7224e-14
4875.17 2.2309e-14
4877.86 2.4434e-14
4880.55 2.5276e-14
4883.24 2.635e-14
4885.93 2.4775e-14
4888.62 2.5138e-14
4891.3 2.5484e-14
4893.99 2.6181e-14
4896.68 2.729e-14
4899.37 2.7375e-14
4902.06 2.8199e-14
4904.75 2.5002e-14
4907.44 2.5477e-14
4910.13 2.7213e-14
4912.82 2.5052e-14
4915.51 2.7169e-14
4918.2 2.6154e-14
4920.88 2.7805e-14
4923.57 2.6649e-14
4926.26 2.5957e-14
4928.95 2.6918e-14
4931.64 2.8077e-14
4934.33 2.7318e-14
4937.02 2.5506e-14
4939.71 2.7969e-14
4942.4 2.8322e-14
4945.09 2.7066e-14
4947.77 2.7993e-14
4950.46 2.6694e-14
4953.15 2.8431e-14
4955.84 3.2874e-14
4958.53 3.3859e-14
4961.22 3.4678e-14
4963.91 3.4274e-14
4966.6 3.1264e-14
4969.29 2.7365e-14
4971.98 2.711e-14
4974.66 2.83e-14
4977.35 2.7352e-14
4980.04 2.9284e-14
4982.73 2.5737e-14
4985.42 2.661e-14
4988.11 2.7539e-14
4990.8 2.6405e-14
4993.49 2.6292e-14
4996.18 2.478e-14
4998.87 2.7841e-14
5001.55 3.1916e-14
5004.24 3.8981e-14
5006.93 4.4091e-14
5009.62 4.2956e-14
5012.31 4.2547e-14
5015.0 3.3656e-14
5017.69 2.9124e-14
5020.38 2.6657e-14
5023.07 2.4298e-14
5025.76 2.5269e-14
5028.45 2.7195e-14
5031.13 2.7e-14
5033.82 2.4762e-14
5036.51 2.7382e-14
5039.2 2.5952e-14
5041.89 2.5712e-14
5044.58 2.6515e-14
5047.27 2.6408e-14
5049.96 2.649e-14
5052.65 2.6506e-14
5055.34 2.6212e-14
5058.02 2.5449e-14
5060.71 2.8553e-14
5063.4 2.7103e-14
5066.09 2.6293e-14
5068.78 2.592e-14
5071.47 2.5985e-14
5074.16 2.6641e-14
5076.85 2.64e-14
5079.54 2.419e-14
5082.23 2.7203e-14
5084.91 2.7793e-14
5087.6 2.6026e-14
5090.29 2.6393e-14
5092.98 2.529e-14
5095.67 2.603e-14
5098.36 2.6583e-14
5101.05 2.4945e-14
5103.74 2.5353e-14
5106.43 2.6372e-14
5109.12 2.5388e-14
5111.8 2.5947e-14
5114.49 2.7344e-14
5117.18 2.944e-14
5119.87 2.708e-14
5122.56 2.6689e-14
5125.25 2.296e-14
5127.94 2.6023e-14
5130.63 2.5446e-14
5133.32 2.7181e-14
5136.01 2.5034e-14
5138.7 2.5966e-14
5141.38 2.45e-14
5144.07 2.5275e-14
5146.76 2.5834e-14
5149.45 2.618e-14
5152.14 2.622e-14
5154.83 2.5669e-14
5157.52 2.5894e-14
5160.21 2.5233e-14
5162.9 2.3811e-14
5165.59 2.4465e-14
5168.27 2.3427e-14
5170.96 2.2897e-14
5173.65 2.3899e-14
5176.34 2.1981e-14
5179.03 2.3783e-14
5181.72 2.4509e-14
5184.41 2.5357e-14
5187.1 2.359e-14
5189.79 2.5117e-14
5192.48 2.5371e-14
5195.16 2.6878e-14
5197.85 2.5973e-14
5200.54 2.8192e-14
5203.23 2.9191e-14
5205.92 2.6403e-14
5208.61 2.494e-14
5211.3 2.4884e-14
5213.99 2.6062e-14
5216.68 2.7217e-14
5219.37 2.6411e-14
5222.05 2.4627e-14
5224.74 2.6322e-14
5227.43 2.7477e-14
5230.12 2.424e-14
5232.81 2.4141e-14
5235.5 2.496e-14
5238.19 2.7062e-14
5240.88 2.759e-14
5243.57 2.6611e-14
5246.26 2.4817e-14
5248.95 2.5552e-14
5251.63 2.4848e-14
5254.32 2.4102e-14
5257.01 2.6471e-14
5259.7 2.7743e-14
5262.39 2.6441e-14
5265.08 2.5855e-14
5267.77 2.4984e-14
5270.46 2.3577e-14
5273.15 2.5967e-14
5275.84 2.6872e-14
5278.52 2.5016e-14
5281.21 2.7087e-14
5283.9 2.5454e-14
5286.59 2.5591e-14
5289.28 2.4747e-14
5291.97 2.6709e-14
5294.66 2.5466e-14
5297.35 2.5158e-14
5300.04 2.5434e-14
5302.73 2.3913e-14
5305.41 2.7044e-14
5308.1 2.5717e-14
5310.79 2.5242e-14
5313.48 2.5904e-14
5316.17 2.7649e-14
5318.86 2.6355e-14
5321.55 2.6253e-14
5324.24 2.5811e-14
5326.93 2.5156e-14
5329.62 2.6399e-14
5332.3 2.4977e-14
5334.99 2.4998e-14
5337.68 2.5206e-14
5340.37 2.7094e-14
5343.06 2.5928e-14
5345.75 2.4176e-14
5348.44 2.4509e-14
5351.13 2.727e-14
5353.82 2.5236e-14
5356.51 2.5111e-14
5359.2 2.7106e-14
5361.88 2.7405e-14
5364.57 2.7254e-14
5367.26 2.7833e-14
5369.95 2.5793e-14
5372.64 2.4678e-14
5375.33 2.4153e-14
5378.02 2.5794e-14
5380.71 2.5139e-14
5383.4 2.7482e-14
5386.09 2.7012e-14
5388.77 2.7974e-14
5391.46 2.6142e-14
5394.15 2.5987e-14
5396.84 2.6452e-14
5399.53 2.5004e-14
5402.22 2.4011e-14
5404.91 2.6313e-14
5407.6 2.5528e-14
5410.29 2.5745e-14
5412.98 2.5346e-14
5415.66 2.6611e-14
5418.35 2.6418e-14
5421.04 2.5519e-14
5423.73 2.6173e-14
5426.42 2.4905e-14
5429.11 2.523e-14
5431.8 2.6081e-14
5434.49 2.639e-14
5437.18 2.6081e-14
5439.87 2.4929e-14
5442.55 2.3999e-14
5445.24 2.4082e-14
5447.93 2.5579e-14
5450.62 2.5096e-14
5453.31 2.7399e-14
5456.0 2.5182e-14
5458.69 2.5496e-14
5461.38 2.6057e-14
5464.07 2.4969e-14
5466.76 2.6226e-14
5469.45 2.4204e-14
5472.13 2.5698e-14
5474.82 2.4263e-14
5477.51 2.571e-14
5480.2 2.3436e-14
5482.89 2.5944e-14
5485.58 2.559e-14
5488.27 2.3785e-14
5490.96 2.5013e-14
5493.65 2.6542e-14
5496.34 2.561e-14
5499.02 2.7725e-14
5501.71 2.7129e-14
5504.4 2.7945e-14
5507.09 2.5738e-14
5509.78 2.6198e-14
5512.47 2.5244e-14
5515.16 2.5141e-14
5517.85 2.6447e-14
5520.54 2.6703e-14
5523.23 2.5037e-14
5525.91 2.5998e-14
5528.6 2.6726e-14
5531.29 2.433e-14
5533.98 2.4444e-14
5536.67 2.5117e-14
5539.36 2.76e-14
5542.05 2.5664e-14
5544.74 2.5834e-14
5547.43 2.5445e-14
5550.12 2.6577e-14
5552.8 2.3702e-14
5555.49 2.4305e-14
5558.18 2.6447e-14
5560.87 2.6801e-14
5563.56 2.8483e-14
5566.25 2.6429e-14
5568.94 2.6071e-14
5571.63 2.5631e-14
5574.32 2.693e-14
5577.01 2.6262e-14
5579.7 2.6731e-14
5582.38 2.6229e-14
5585.07 2.522e-14
5587.76 2.3818e-14
5590.45 2.3915e-14
5593.14 2.5017e-14
5595.83 2.4751e-14
5598.52 2.5807e-14
5601.21 2.5253e-14
5603.9 2.5587e-14
5606.59 2.5963e-14
5609.27 2.5034e-14
5611.96 2.6004e-14
5614.65 2.6146e-14
5617.34 2.6508e-14
5620.03 2.2448e-14
5622.72 2.302e-14
5625.41 2.5634e-14
5628.1 2.6963e-14
5630.79 2.5454e-14
5633.48 2.4611e-14
5636.16 2.5034e-14
5638.85 2.5028e-14
5641.54 2.4149e-14
5644.23 2.379e-14
5646.92 2.2866e-14
5649.61 2.3852e-14
5652.3 2.3933e-14
5654.99 2.6266e-14
5657.68 2.6759e-14
5660.37 2.5304e-14
5663.05 2.5523e-14
5665.74 2.5537e-14
5668.43 2.4832e-14
5671.12 2.6932e-14
5673.81 2.7274e-14
5676.5 2.4833e-14
5679.19 2.6807e-14
5681.88 2.453e-14
5684.57 2.6201e-14
5687.26 2.5508e-14
5689.95 2.4871e-14
5692.63 2.5594e-14
5695.32 2.4812e-14
5698.01 2.5177e-14
5700.7 2.4654e-14
5703.39 2.4786e-14
5706.08 2.3896e-14
5708.77 2.612e-14
5711.46 2.5415e-14
5714.15 2.3183e-14
5716.84 2.3406e-14
5719.52 2.4174e-14
5722.21 2.7143e-14
5724.9 2.6575e-14
5727.59 2.7643e-14
5730.28 2.5718e-14
5732.97 2.5571e-14
5735.66 2.5523e-14
5738.35 2.5379e-14
5741.04 2.6384e-14
5743.73 2.3042e-14
5746.41 2.4574e-14
5749.1 2.6085e-14
5751.79 2.5012e-14
5754.48 2.52e-14
5757.17 2.3923e-14
5759.86 2.4896e-14
5762.55 2.3303e-14
5765.24 2.5972e-14
5767.93 2.4628e-14
5770.62 2.6229e-14
5773.3 2.3655e-14
5775.99 2.751e-14
5778.68 2.3493e-14
5781.37 2.589e-14
5784.06 2.4409e-14
5786.75 2.478e-14
5789.44 2.4077e-14
5792.13 2.3564e-14
5794.82 2.3009e-14
5797.51 2.328e-14
5800.19 3.0388e-14
5802.88 2.5448e-14
5805.57 2.507e-14
5808.26 2.5576e-14
5810.95 2.3745e-14
5813.64 2.4228e-14
5816.33 2.7361e-14
5819.02 2.6127e-14
5821.71 2.5269e-14
5824.4 2.5099e-14
5827.09 2.003e-14
5829.77 2.5487e-14
5832.46 2.5404e-14
5835.15 2.4331e-14
5837.84 2.5249e-14
5840.53 2.5694e-14
5843.22 2.5073e-14
5845.91 2.7122e-14
5848.6 2.4577e-14
5851.29 2.4637e-14
5853.98 2.434e-14
5856.66 2.3204e-14
5859.35 2.356e-14
5862.04 2.4854e-14
5864.73 2.2869e-14
5867.42 2.302e-14
5870.11 2.6501e-14
5872.8 2.6854e-14
5875.49 2.7351e-14
5878.18 2.9236e-14
5880.87 2.7751e-14
5883.55 2.6766e-14
5886.24 2.5419e-14
5888.93 2.3412e-14
5891.62 2.2533e-14
5894.31 2.1807e-14
5897.0 2.2293e-14
5899.69 2.1411e-14
5902.38 2.3462e-14
5905.07 2.3966e-14
5907.76 2.69e-14
5910.44 2.5176e-14
5913.13 2.4598e-14
5915.82 2.4314e-14
5918.51 2.3496e-14
5921.2 2.424e-14
5923.89 2.5459e-14
5926.58 2.389e-14
5929.27 2.1828e-14
5931.96 2.1171e-14
5934.65 2.2986e-14
5937.34 2.5337e-14
5940.02 2.3881e-14
5942.71 2.346e-14
5945.4 2.3593e-14
5948.09 2.3973e-14
5950.78 2.379e-14
5953.47 2.2937e-14
5956.16 2.3678e-14
5958.85 2.3531e-14
5961.54 2.4432e-14
5964.23 2.622e-14
5966.91 2.5923e-14
5969.6 2.7062e-14
5972.29 2.663e-14
5974.98 2.3939e-14
5977.67 2.3432e-14
5980.36 2.446e-14
5983.05 2.5184e-14
5985.74 2.5491e-14
5988.43 2.5514e-14
5991.12 2.2366e-14
5993.8 2.232e-14
5996.49 2.5716e-14
5999.18 2.5469e-14
6001.87 2.5222e-14
6004.56 2.44e-14
6007.25 2.3992e-14
6009.94 2.521e-14
6012.63 2.2705e-14
6015.32 2.4152e-14
6018.01 2.4256e-14
6020.69 2.2646e-14
6023.38 2.5069e-14
6026.07 2.3851e-14
6028.76 2.0637e-14
6031.45 2.3973e-14
6034.14 2.6267e-14
6036.83 2.5713e-14
6039.52 2.4153e-14
6042.21 2.3959e-14
6044.9 2.3746e-14
6047.59 2.4032e-14
6050.27 2.4827e-14
6052.96 2.5679e-14
6055.65 2.6614e-14
6058.34 2.2801e-14
6061.03 2.2413e-14
6063.72 2.563e-14
6066.41 2.6046e-14
6069.1 2.4203e-14
6071.79 2.3535e-14
6074.48 2.4393e-14
6077.16 2.6116e-14
6079.85 2.4324e-14
6082.54 2.5662e-14
6085.23 2.2845e-14
6087.92 2.3669e-14
6090.61 2.2953e-14
6093.3 2.4946e-14
6095.99 2.6835e-14
6098.68 2.7143e-14
6101.37 2.4629e-14
6104.05 2.0831e-14
6106.74 2.5694e-14
6109.43 2.3319e-14
6112.12 2.2927e-14
6114.81 2.3873e-14
6117.5 2.2078e-14
6120.19 2.6461e-14
6122.88 2.2482e-14
6125.57 2.0427e-14
6128.26 2.3017e-14
6130.94 2.2885e-14
6133.63 2.4031e-14
6136.32 2.4506e-14
6139.01 2.6198e-14
6141.7 2.4629e-14
6144.39 2.4794e-14
6147.08 2.4402e-14
6149.77 2.3471e-14
6152.46 2.4691e-14
6155.15 2.3655e-14
6157.84 2.4463e-14
6160.52 2.3445e-14
6163.21 2.1532e-14
6165.9 2.4876e-14
6168.59 2.3429e-14
6171.28 2.2946e-14
6173.97 2.4442e-14
6176.66 2.2438e-14
6179.35 2.4019e-14
6182.04 2.3972e-14
6184.73 2.1868e-14
6187.41 2.3244e-14
6190.1 2.5206e-14
6192.79 2.4178e-14
6195.48 2.236e-14
6198.17 2.4546e-14
6200.86 2.3241e-14
6203.55 2.2705e-14
6206.24 2.3454e-14
6208.93 2.2832e-14
6211.62 2.2035e-14
6214.3 2.3427e-14
6216.99 2.2889e-14
6219.68 2.3052e-14
6222.37 2.1618e-14
6225.06 2.4134e-14
6227.75 2.2523e-14
6230.44 2.3555e-14
6233.13 2.3223e-14
6235.82 2.1546e-14
6238.51 2.222e-14
6241.19 2.239e-14
6243.88 2.0783e-14
6246.57 2.3114e-14
6249.26 2.3257e-14
6251.95 2.2601e-14
6254.64 2.2177e-14
6257.33 2.1587e-14
6260.02 1.9562e-14
6262.71 2.1861e-14
6265.4 2.2881e-14
6268.09 2.1949e-14
6270.77 2.343e-14
6273.46 2.2804e-14
6276.15 2.3491e-14
6278.84 2.4099e-14
6281.53 2.2639e-14
6284.22 2.1589e-14
6286.91 2.0694e-14
6289.6 2.1024e-14
6292.29 2.1388e-14
6294.98 2.2759e-14
6297.66 2.3356e-14
6300.35 2.4468e-14
6303.04 2.7025e-14
6305.73 2.6573e-14
6308.42 2.3952e-14
6311.11 2.3193e-14
6313.8 2.3692e-14
6316.49 2.3581e-14
6319.18 2.2091e-14
6321.87 2.4862e-14
6324.55 2.259e-14
6327.24 2.3797e-14
6329.93 2.5315e-14
6332.62 2.5965e-14
6335.31 2.3253e-14
6338.0 2.3338e-14
6340.69 2.0717e-14
6343.38 2.2829e-14
6346.07 1.9479e-14
6348.76 2.1992e-14
6351.44 2.1997e-14
6354.13 2.3009e-14
6356.82 2.4414e-14
6359.51 2.5519e-14
6362.2 2.4201e-14
6364.89 2.4637e-14
6367.58 2.3389e-14
6370.27 2.429e-14
6372.96 2.3658e-14
6375.65 2.4624e-14
6378.34 2.4243e-14
6381.02 2.2146e-14
6383.71 1.9925e-14
6386.4 2.3899e-14
6389.09 2.868e-14
6391.78 2.4635e-14
6394.47 2.1029e-14
6397.16 2.2263e-14
6399.85 2.6369e-14
6402.54 2.3675e-14
6405.23 2.0432e-14
6407.91 2.3951e-14
6410.6 2.5964e-14
6413.29 2.0368e-14
6415.98 2.2e-14
6418.67 2.3891e-14
6421.36 2.1882e-14
6424.05 2.3575e-14
6426.74 2.2661e-14
6429.43 2.4012e-14
6432.12 2.4701e-14
6434.8 2.3083e-14
6437.49 2.2741e-14
6440.18 2.2063e-14
6442.87 2.1271e-14
6445.56 2.2033e-14
6448.25 2.133e-14
6450.94 2.2561e-14
6453.63 2.3776e-14
6456.32 2.1741e-14
6459.01 2.169e-14
6461.69 2.3365e-14
6464.38 2.1851e-14
6467.07 2.2914e-14
6469.76 2.3242e-14
6472.45 2.131e-14
6475.14 2.25e-14
6477.83 2.2741e-14
6480.52 2.3556e-14
6483.21 2.1843e-14
6485.9 2.3355e-14
6488.59 2.2365e-14
6491.27 2.2857e-14
6493.96 2.1772e-14
6496.65 1.8792e-14
6499.34 2.0435e-14
6502.03 2.0779e-14
6504.72 1.9852e-14
6507.41 2.3058e-14
6510.1 1.9092e-14
6512.79 2.1196e-14
6515.48 2.3382e-14
6518.16 1.9936e-14
6520.85 2.4159e-14
6523.54 2.1426e-14
6526.23 2.4078e-14
6528.92 2.3977e-14
6531.61 2.2057e-14
6534.3 2.4369e-14
6536.99 2.2642e-14
6539.68 2.2141e-14
6542.37 2.396e-14
6545.05 2.9835e-14
6547.74 3.2422e-14
6550.43 3.3607e-14
6553.12 3.126e-14
6555.81 4.0283e-14
6558.5 6.1898e-14
6561.19 9.7734e-14
6563.88 1.1536e-13
6566.57 1.109e-13
6569.26 9.1792e-14
6571.94 6.4411e-14
6574.63 4.2021e-14
6577.32 3.3574e-14
6580.01 4.0242e-14
6582.7 4.9699e-14
6585.39 5.3537e-14
6588.08 5.0323e-14
6590.77 4.3467e-14
6593.46 3.482e-14
6596.15 2.6481e-14
6598.84 2.237e-14
6601.52 2.1294e-14
6604.21 2.2351e-14
6606.9 2.3137e-14
6609.59 2.0324e-14
6612.28 2.0384e-14
6614.97 2.1024e-14
6617.66 2.2244e-14
6620.35 2.4581e-14
6623.04 2.2757e-14
6625.73 2.0271e-14
6628.41 2.1008e-14
6631.1 2.2422e-14
6633.79 2.1672e-14
6636.48 2.1622e-14
6639.17 2.2589e-14
6641.86 2.4792e-14
6644.55 2.3563e-14
6647.24 2.1301e-14
6649.93 1.9909e-14
6652.62 2.1102e-14
6655.3 2.2548e-14
6657.99 2.2917e-14
6660.68 2.35e-14
6663.37 2.1749e-14
6666.06 2.0764e-14
6668.75 2.0195e-14
6671.44 1.9235e-14
6674.13 1.7822e-14
6676.82 2.3779e-14
6687.47 2.2107e-14
6702.89 2.2002e-14
6718.34 2.2254e-14
6733.83 2.2149e-14
6749.35 2.1893e-14
6764.91 2.2297e-14
6780.5 2.2242e-14
6796.13 2.2137e-14
6811.8 2.2033e-14
6827.51 2.208e-14
6843.24 2.2179e-14
6859.02 2.1771e-14
6874.83 2.1718e-14
6890.68 2.1221e-14
6906.56 2.1613e-14
6922.48 2.161e-14
6938.44 2.2009e-14
6954.44 2.1854e-14
6970.47 2.2104e-14
6986.54 2.0961e-14
7002.64 2.1946e-14
7018.78 2.1792e-14
7034.97 2.1589e-14
7051.18 2.2191e-14
7067.44 2.0946e-14
7083.73 2.153e-14
7100.06 2.0558e-14
7116.43 2.0508e-14
7132.83 2.0364e-14
7149.28 2.0502e-14
7165.75 2.0547e-14
7182.27 1.9984e-14
7198.83 1.9347e-14
7215.43 1.9659e-14
7232.06 2.0535e-14
7248.73 2.0391e-14
7265.44 2.0911e-14
7282.19 2.0338e-14
7298.97 1.9464e-14
7315.8 2.0473e-14
7332.67 2.0564e-14
7349.57 2.1333e-14
7366.51 2.1232e-14
7383.49 2.1376e-14
7400.51 2.1177e-14
7417.58 2.098e-14
7434.67 2.1814e-14
7451.81 2.0973e-14
7468.99 2.0588e-14
7486.21 2.1456e-14
7503.47 2.0772e-14
7520.76 2.1449e-14
7538.1 2.1298e-14
7555.48 2.1443e-14
7572.89 2.1292e-14
7590.35 2.1289e-14
7607.85 2.0993e-14
7625.39 2.0418e-14
7642.96 2.0795e-14
7660.59 2.0272e-14
7678.24 1.9853e-14
7695.94 2.0126e-14
7713.69 1.9938e-14
7731.47 1.9844e-14
7749.29 1.9704e-14
7767.16 1.961e-14
7785.06 1.9428e-14
7803.0 1.9604e-14
7821.0 1.992e-14
7839.02 1.9285e-14
7857.09 1.964e-14
7875.2 2.0002e-14
7893.36 1.9907e-14
7911.56 1.9586e-14
7929.79 1.9225e-14
7948.08 1.8785e-14
7966.4 1.9043e-14
7984.76 1.9483e-14
8003.17 1.8949e-14
8021.62 1.9567e-14
8040.11 1.9745e-14
8058.64 1.9471e-14
8077.22 1.9112e-14
8095.84 1.9375e-14
8114.5 1.9283e-14
8133.21 1.9593e-14
8151.96 1.9056e-14
8170.75 1.7537e-14
8189.59 1.8659e-14
8208.47 1.8443e-14
8227.39 1.9309e-14
8246.36 1.9395e-14
8265.36 1.8647e-14
8284.42 1.8261e-14
8303.51 1.847e-14
8322.66 1.8984e-14
8341.84 1.8168e-14
8361.07 1.9153e-14
8380.35 1.8801e-14
8399.66 1.8327e-14
8419.03 1.8838e-14
8438.44 1.9096e-14
8457.89 1.8276e-14
8477.38 1.733e-14
8496.93 1.8609e-14
8516.52 1.8436e-14
8536.15 1.8096e-14
8555.82 1.5686e-14
8575.55 1.8511e-14
8595.32 1.8254e-14
8615.13 1.7959e-14
8634.99 1.8459e-14
8654.9 1.8161e-14
8674.85 1.4691e-14
8694.84 1.766e-14
8714.89 1.7985e-14
8734.98 1.8443e-14
8755.11 1.761e-14
8775.3 1.777e-14
8795.53 1.8476e-14
8815.8 1.6238e-14
8836.13 1.7883e-14
8856.5 1.788e-14
8876.91 1.6192e-14
8897.38 1.7467e-14
8917.89 1.7666e-14
8938.44 1.7221e-14
8959.05 1.7178e-14
8979.7 1.6707e-14
9000.4 1.4956e-14
9021.15 1.5479e-14
9041.95 1.7851e-14
9062.79 1.818e-14
9083.68 1.7681e-14
9104.62 1.7395e-14
9125.61 1.6571e-14
9146.65 1.6153e-14
9167.73 1.7029e-14
9188.87 1.7183e-14
9210.05 1.7259e-14
9231.28 1.6863e-14
9252.56 1.6476e-14
9273.89 1.721e-14
9295.27 1.6207e-14
9316.7 1.7085e-14
9338.17 1.7082e-14
9359.7 1.7039e-14
9381.28 1.6997e-14
9402.9 1.6645e-14
9424.58 1.7069e-14
9446.3 1.6831e-14
9468.08 1.7141e-14
9489.91 1.7138e-14
9511.78 1.6706e-14
9533.71 1.6664e-14
9555.69 1.5948e-14
9577.71 1.6581e-14
9599.8 1.6964e-14
9621.92 1.6844e-14
9644.1 1.6648e-14
9666.33 1.6607e-14
9688.62 1.6796e-14
9710.95 1.6562e-14
9733.34 1.6407e-14
9755.78 1.6328e-14
9778.27 1.6363e-14
9800.81 1.6172e-14
9823.4 1.6319e-14
9846.04 1.6391e-14
9868.75 1.6274e-14
9891.5 1.6234e-14
9914.3 1.6119e-14
9937.15 1.6227e-14
9960.06 1.6261e-14
9983.02 1.6146e-14
10029.1 1.6028e-14
10075.39 1.5729e-14
10121.89 1.6126e-14
10168.62 1.5972e-14
10215.56 1.6039e-14
10286.36 1.6066e-14
10310.07 1.5989e-14
10501.76 1.5425e-14
10697.0 1.4765e-14
10895.87 1.4133e-14
11098.44 1.3528e-14
11304.78 1.3281e-14
11488.47 1.322e-14
11702.05 1.286e-14
11892.19 1.2366e-14
12113.28 1.2168e-14
12310.11 1.1946e-14
12510.13 1.1594e-14
12713.4 1.1304e-14
12890.26 1.1046e-14
13099.71 1.0845e-14
13312.57 1.0501e-14
13497.76 1.0262e-14
13685.54 1.0051e-14
13907.91 9.6655e-15
14101.39 9.2305e-15
14297.56 9.062e-15
14496.46 9.1038e-15
14698.13 8.7745e-15
14902.6 8.8761e-15
15109.92 8.8966e-15
15284.87 9.0204e-15
15497.5 8.9377e-15
15713.1 8.7342e-15
15895.05 8.3989e-15
16116.17 8.3989e-15
16302.79 8.3603e-15
16491.58 8.2267e-15
16682.53 8.1889e-15
16914.6 8.058e-15
17110.47 7.9291e-15
17308.61 7.6072e-15
17509.01 7.3829e-15
17711.76 7.0831e-15
17916.86 6.8112e-15
18082.65 6.4599e-15
18292.02 6.2983e-15
18503.84 6.0845e-15
18718.11 5.7973e-15
18891.29 5.6523e-15
19110.05 5.5619e-15
19286.88 5.3979e-15
19510.22 5.1787e-15
19690.73 5.026e-15
19918.74 4.8666e-15
20103.06 4.7888e-15
20289.06 4.6262e-15
20476.8 4.5732e-15
20713.91 4.4589e-15
20905.56 4.3674e-15
21099.01 4.2877e-15
21294.22 4.1998e-15
21491.26 4.1136e-15
21690.13 3.974e-15
21890.81 3.9104e-15
22093.37 3.8039e-15
22297.79 3.7087e-15
22504.11 3.6243e-15
22712.35 3.5255e-15
22922.49 3.1785e-15
23081.4 3.1566e-15
23294.95 2.7811e-15
23510.51 2.6195e-15
23673.46 2.6499e-15
23892.52 2.4503e-15
24113.6 2.3671e-15
24280.74 2.3347e-15
24505.42 2.1788e-15
24675.27 2.1391e-15
24903.6 1.8375e-15
25076.21 1.8165e-15
25308.25 1.8248e-15
25483.66 1.8081e-15
25719.47 1.8333e-15
25897.74 1.7998e-15
26077.27 1.7915e-15
26318.54 1.7508e-15
26500.99 1.7307e-15
26684.67 1.6991e-15
26869.65 1.6758e-15
27118.26 1.6528e-15
27306.25 1.6226e-15
27495.51 1.5967e-15
27686.12 1.5604e-15
27878.02 1.5425e-15
28071.27 1.5143e-15
28331.0 1.4936e-15
28527.39 1.4663e-15
28725.12 1.4362e-15
28924.25 1.4165e-15
29124.73 1.3939e-15
29326.63 1.3684e-15
29529.9 1.3435e-15
29666.19 1.325e-15
29871.85 1.3008e-15
30078.89 1.28e-15
30287.41 1.2596e-15
30497.34 1.2452e-15
30708.75 1.2309e-15
30921.6 1.214e-15
31064.32 1.2001e-15
31279.66 1.1891e-15
31496.47 1.1755e-15
31714.81 1.162e-15
31934.63 1.1567e-15
32082.02 1.154e-15
32304.42 1.1647e-15
32528.33 1.2057e-15
32678.5 1.3404e-15
32905.0 1.7188e-15
33133.11 1.6991e-15
33286.03 1.2889e-15
33516.74 1.1304e-15
33671.47 1.0574e-15
33904.86 1.0168e-15
34061.34 9.8679e-16
34297.47 9.6655e-16
34535.18 9.4673e-16
34694.62 9.2731e-16
34935.09 9.1038e-16
35096.34 8.9583e-16
35339.63 8.7745e-16
35502.74 8.6342e-16
35666.6 8.4767e-16
35913.85 8.3411e-16
36079.61 8.2267e-16
36329.73 8.0765e-16
36497.4 7.9291e-16
36665.85 7.8023e-16
36920.03 7.6599e-16
37090.44 7.5201e-16
37261.63 7.4169e-16
37519.93 7.2648e-16
37693.1 7.1817e-16
37867.08 7.0668e-16
38129.58 6.9538e-16
38305.57 6.8584e-16
38482.36 6.7488e-16
38660.02 6.6256e-16
38927.98 6.5347e-16
39107.69 6.4302e-16
39288.19 6.342e-16
39469.52 6.2262e-16
39743.14 6.1267e-16
39926.57 6.0148e-16
40110.85 5.9323e-16
40295.98 5.8509e-16
40482.01 5.7441e-16
40668.85 5.6784e-16
40856.56 5.6005e-16
41139.78 5.5236e-16
41329.66 5.4478e-16
41520.42 5.3731e-16
41712.1 5.2872e-16
41904.62 5.2267e-16
42098.03 5.1431e-16
42292.38 5.0959e-16
42487.58 5.026e-16
42683.68 4.9571e-16
42880.73 4.8109e-16
43078.64 4.6583e-16
43277.47 4.6476e-16
43477.21 4.5105e-16
43677.93 4.4384e-16
43879.52 4.3775e-16
44082.04 4.268e-16
44285.55 4.2289e-16
44489.95 4.1708e-16
44695.29 4.0853e-16
44901.63 4.0759e-16
45108.87 4.0107e-16
45317.07 3.9466e-16
45526.28 3.9285e-16
45736.4 3.8925e-16
45947.5 3.8126e-16
46053.41 3.8126e-16
46266.02 3.769e-16
46479.56 3.7258e-16
46694.08 3.7087e-16
46909.65 3.6747e-16
47126.16 3.6327e-16
47343.67 3.6243e-16
47452.8 3.5828e-16
47671.86 3.5582e-16
47891.89 3.5337e-16
48112.94 3.4852e-16
48335.0 3.4932e-16
48446.47 3.4532e-16
48670.07 3.4216e-16
48894.71 3.3983e-16
49120.43 3.3915e-16
49347.14 3.3848e-16
49460.89 3.3697e-16
49689.17 3.3708e-16
49918.57 3.364e-16
50148.97 3.3651e-16
50264.56 3.3501e-16
50496.56 3.3434e-16
50729.68 3.3444e-16
50846.61 3.3449e-16
50963.82 3.3454e-16
51081.29 3.3459e-16
51199.04 3.3387e-16
51317.05 3.3392e-16
51435.4 3.3397e-16
51553.96 3.3402e-16
51672.8 3.3484e-16
51791.91 3.3566e-16
51911.29 3.3494e-16
52030.95 3.3499e-16
52150.94 3.3581e-16
52271.16 3.3586e-16
52391.64 3.3591e-16
52512.41 3.3673e-16
52633.46 3.3833e-16
52754.78 3.3916e-16
52876.38 3.3843e-16
52998.32 3.3848e-16
53120.49 3.3931e-16
53242.94 3.4014e-16
53365.67 3.4097e-16
53488.68 3.4181e-16
53611.97 3.4264e-16
53735.55 3.4427e-16
53859.48 3.4511e-16
53983.63 3.4596e-16
54108.06 3.476e-16
54232.78 3.4845e-16
54357.79 3.4931e-16
54483.09 3.5097e-16
54608.74 3.5264e-16
54734.62 3.5431e-16
54860.79 3.56e-16
54987.24 3.5769e-16
55113.99 3.5939e-16
55241.03 3.6193e-16
55368.37 3.6449e-16
55496.06 3.6622e-16
55623.98 3.6796e-16
55752.2 3.7142e-16
55880.71 3.7404e-16
56009.52 3.7669e-16
56138.62 3.811e-16
56268.09 3.838e-16
56397.79 3.8651e-16
56527.79 3.9104e-16
56658.09 3.9562e-16
56788.69 3.9933e-16
56919.6 4.0401e-16
57050.8 4.0874e-16
57182.37 4.1544e-16
57314.18 4.2127e-16
57446.29 4.2719e-16
57578.71 4.3419e-16
57711.43 4.4028e-16
57844.46 4.4853e-16
57977.8 4.5798e-16
58111.5 4.6656e-16
58245.45 4.7529e-16
58379.71 4.8755e-16
58514.28 4.9897e-16
58649.16 5.1066e-16
58784.35 5.2503e-16
58919.92 5.3981e-16
59143.24 5.4097e-16
59446.22 5.4708e-16
59749.2 6.6684e-16
60052.19 7.6446e-16
60355.17 8.3656e-16
60658.14 8.4651e-16
60961.13 9.3892e-16
61264.11 1.2168e-15
61567.1 1.8115e-15
61870.08 2.5135e-15
62173.07 2.7845e-15
62476.05 2.5285e-15
62779.03 2.0291e-15
63082.01 1.6226e-15
63385.0 1.3853e-15
63687.98 1.1936e-15
63990.96 1.0666e-15
64293.95 9.8468e-16
64596.93 8.8663e-16
64899.91 8.2788e-16
65202.9 7.924e-16
65505.88 7.6056e-16
65808.86 7.5993e-16
66111.85 7.5871e-16
66414.83 7.7915e-16
66717.82 7.5827e-16
67020.8 7.84e-16
67323.78 7.7952e-16
67626.77 7.6279e-16
67929.74 7.3685e-16
68232.73 7.8344e-16
68535.71 7.5941e-16
68838.69 7.8374e-16
69141.68 8.2196e-16
69444.66 8.9595e-16
69747.64 1.169e-15
70050.63 1.1766e-15
70353.61 1.0675e-15
70656.6 1.0014e-15
70959.58 1.0527e-15
71262.56 1.0811e-15
71565.55 1.1047e-15
71868.53 1.093e-15
72171.51 1.1284e-15
72474.5 1.1634e-15
72777.48 1.2825e-15
73080.46 1.3895e-15
73383.44 1.4116e-15
73666.6 1.3535e-15
73686.43 1.5122e-15
73989.42 1.6942e-15
74273.76 1.7006e-15
74292.39 1.8783e-15
74880.94 2.0649e-15
75488.11 2.4489e-15
76095.28 2.6848e-15
76702.45 2.5405e-15
77309.64 2.4102e-15
77916.81 2.3286e-15
78523.98 2.158e-15
79131.16 1.9085e-15
79738.33 1.6266e-15
80345.5 1.4116e-15
80952.68 1.226e-15
81559.85 1.1173e-15
82167.03 1.055e-15
82774.2 1.0544e-15
83381.38 1.0806e-15
83988.55 1.0984e-15
84595.73 1.1536e-15
85202.89 1.2772e-15
85810.07 1.3124e-15
86417.25 1.2343e-15
87024.42 1.0534e-15
87631.58 8.4739e-16
88238.76 6.749e-16
88845.93 5.6071e-16
89453.12 5.0604e-16
90060.29 4.8592e-16
90667.46 4.1801e-16
91274.64 3.7295e-16
91881.81 3.6186e-16
92488.98 3.4935e-16
93096.15 3.4063e-16
93703.33 3.2217e-16
94310.5 3.227e-16
94917.67 3.2761e-16
95524.85 3.3144e-16
96132.03 3.3902e-16
96739.2 3.5062e-16
97346.38 3.1535e-16
97953.51 3.0831e-16
98560.73 2.8664e-16
99167.86 2.8254e-16
99775.1 2.8117e-16
100382.23 2.7964e-16
100989.46 2.8753e-16
101596.6 2.7326e-16
102203.73 2.6613e-16
102810.96 2.6584e-16
103418.09 2.8115e-16
104025.32 3.0258e-16
104632.46 3.3128e-16
105239.59 3.7974e-16
105846.82 3.8557e-16
106453.96 3.7029e-16
107061.18 3.7857e-16
107668.31 3.6751e-16
108275.54 3.845e-16
108882.68 4.1999e-16
109489.81 4.9637e-16
110097.04 6.0309e-16
110704.17 6.5251e-16
111311.4 8.9969e-16
111918.53 1.4084e-15
112525.76 1.6044e-15
113132.9 1.3885e-15
113740.03 1.0642e-15
114347.26 8.5053e-16
114954.4 7.1157e-16
115561.62 6.1156e-16
116168.75 5.4804e-16
116775.99 5.1807e-16
117383.12 4.9841e-16
117990.25 5.1021e-16
118597.49 5.3379e-16
119204.62 5.6334e-16
119811.84 5.5465e-16
120418.97 5.4804e-16
121026.12 5.2089e-16
121633.34 5.1011e-16
122240.47 5.4144e-16
122847.7 5.8353e-16
123454.84 5.7781e-16
124062.07 5.8188e-16
124669.2 6.1228e-16
125276.34 6.5874e-16
125883.57 6.9276e-16
126490.7 7.3385e-16
127097.93 8.0079e-16
127705.06 1.1225e-15
128312.19 1.1558e-15
128919.42 6.7985e-16
129526.56 4.5331e-16
130133.79 4.0689e-16
130740.91 4.0131e-16
131348.14 4.0207e-16
131955.28 3.9591e-16
132562.42 3.882e-16
133169.65 3.8536e-16
133776.77 3.8206e-16
134384.01 3.8615e-16
134991.14 3.8478e-16
135598.37 3.7471e-16
136205.5 3.6825e-16
136812.64 3.5989e-16
137419.87 3.4568e-16
138027.01 3.4052e-16
138634.22 3.3576e-16
139241.36 3.3742e-16
139848.59 3.4068e-16
140455.73 3.2407e-16
141062.85 3.2325e-16
141670.1 3.2279e-16
142192.55 3.2794e-16
143089.11 3.124e-16
143985.78 3.0271e-16
144882.35 2.8427e-16
145778.91 2.7121e-16
146675.49 2.7305e-16
147572.15 2.7674e-16
148468.73 2.7317e-16
149365.29 2.5499e-16
150261.96 2.5916e-16
151158.53 2.6105e-16
152055.09 2.855e-16
152951.67 2.6322e-16
153848.34 2.7717e-16
154744.91 3.4298e-16
155641.47 4.5215e-16
156538.14 3.6194e-16
157434.71 2.7797e-16
158331.27 2.7453e-16
159227.94 2.8987e-16
160124.52 2.8608e-16
161021.08 2.9076e-16
161917.65 3.0451e-16
162814.33 3.4497e-16
163710.88 4.0207e-16
164607.46 4.386e-16
165504.03 4.1106e-16
166400.7 3.696e-16
167297.27 3.8757e-16
168193.85 3.8478e-16
169090.52 4.0018e-16
169987.08 4.7206e-16
170883.65 4.7637e-16
171780.32 4.0728e-16
172676.88 4.0795e-16
173573.45 4.1224e-16
174470.01 3.9104e-16
175366.68 3.4911e-16
176263.26 3.1903e-16
177159.82 2.8631e-16
178056.48 3.1497e-16
178953.06 3.2509e-16
179849.62 3.1195e-16
180746.29 2.8457e-16
181642.86 2.9323e-16
182539.44 2.9132e-16
183436.0 2.9554e-16
184332.67 3.0043e-16
185229.24 3.0165e-16
186125.8 3.3545e-16
187022.48 5.5595e-16
187919.06 4.5981e-16
188815.6 3.3596e-16
189712.18 3.0097e-16
190608.86 2.7027e-16
191505.42 2.9044e-16
192402.0 2.7144e-16
193298.67 2.9569e-16
194195.23 2.6891e-16
195091.8 2.7435e-16
195988.38 3.0147e-16
196885.04 2.7957e-16
197781.6 3.1574e-16
198678.18 2.7719e-16
199574.85 2.9552e-16
200994.65 2.6501e-16
202710.72 3.1301e-16
204427.79 3.0948e-16
206145.84 2.7701e-16
207864.76 3.1597e-16
209584.55 3.1049e-16
211305.33 2.8534e-16
213027.01 3.1022e-16
214749.63 3.328e-16
216473.25 3.1735e-16
218197.74 2.9945e-16
219923.22 3.1882e-16
221649.58 3.2871e-16
223376.89 3.1252e-16
225105.2 3.0873e-16
226834.4 3.1262e-16
228564.57 3.3499e-16
230295.72 3.3223e-16
232027.74 3.1735e-16
233760.85 3.168e-16
235494.73 3.3316e-16
237229.67 3.4124e-16
238965.62 3.3516e-16
240702.44 3.2695e-16
242440.22 3.3633e-16
244179.0 3.4598e-16
245918.64 3.4508e-16
247659.37 3.4098e-16
249400.99 3.3952e-16
251143.68 3.4464e-16
252887.22 3.4819e-16
254631.78 3.5208e-16
256377.29 3.4946e-16
258123.79 3.5909e-16
259871.25 3.7012e-16
261619.73 3.6645e-16
263369.15 3.5279e-16
265119.56 3.5651e-16
266870.93 3.5761e-16
268623.29 3.5678e-16
270376.75 3.7115e-16
272131.06 3.5699e-16
273886.35 3.6539e-16
275642.71 3.7462e-16
277400.08 3.6922e-16
279158.31 3.6669e-16
280917.6 3.6824e-16
282677.9 3.7985e-16
284439.27 3.7332e-16
286201.59 3.7395e-16
287964.83 3.6117e-16
289729.19 3.7799e-16
291494.48 3.6019e-16
293260.8 3.7412e-16
295028.13 3.6551e-16
296796.44 3.8592e-16
298565.82 3.8822e-16
300336.17 3.8323e-16
302107.5 3.7745e-16
303879.91 3.8566e-16
305653.41 3.828e-16
307427.86 3.7987e-16
309203.32 3.9007e-16
310979.72 3.9782e-16
312757.32 3.9858e-16
314535.8 3.9287e-16
316315.42 4.0199e-16
318095.95 3.9067e-16
319877.64 4.0412e-16
321660.34 3.9911e-16
323443.96 4e-16
325228.71 4.0725e-16
327014.52 4.0136e-16
328801.38 4.1888e-16
330589.28 4.0111e-16
332378.18 4.7896e-16
334168.09 6.3815e-16
335959.1 5.0544e-16
337751.28 4.111e-16
339544.31 4.2686e-16
341338.53 4.139e-16
