# col1 col2
# An Atlas of Galaxy Spectral Energy Distributions from the Ultraviolet to the Mid-Infrared
# Brown et al. (2014)
# http://dx.doi.org/10.5072/03/529D3551F0117
# 
# Column 1 : Restframe Wavelength (Angstrom)
# Column 2 : Flux per unit wavelength (ergs/s/cm^2/Angstrom)
# Column 3 : Observed wavelength (Angstrom)
# Column 4 : Source (0 = model, 1 = Optical Spectrum, 2 = Akari, 3 = Spitzer IRS)
# 
102.06 2.9302e-25
103.96 4.2354e-25
105.89 6.2073e-25
108.11 9.2448e-25
110.12 1.5485e-24
113.99 2.971e-24
118.0 5.2954e-24
121.02 2.3491e-23
124.99 3.8098e-23
127.02 4.6763e-23
127.9 5.2711e-23
130.88 6.9968e-23
132.09 8.7478e-23
133.93 1.0445e-22
137.05 1.5592e-22
139.92 1.9994e-22
142.85 6.3372e-22
146.85 1.9315e-21
150.96 2.5055e-21
154.84 3.2651e-21
159.17 4.2354e-21
162.13 5.0804e-21
165.91 6.5448e-21
170.17 8.1639e-21
172.93 9.6361e-21
176.96 1.1855e-20
179.83 1.3801e-20
181.92 1.5237e-20
186.15 1.8446e-20
190.93 2.3169e-20
194.03 2.6662e-20
198.09 3.1543e-20
201.78 3.7316e-20
205.06 4.216e-20
209.83 4.8854e-20
216.21 6.3812e-20
220.23 7.3943e-20
222.78 8.0891e-20
226.92 9.3519e-20
230.08 1.5307e-19
233.81 2.7791e-19
239.81 3.8806e-19
245.96 4.1581e-19
252.27 4.9534e-19
256.96 4.6121e-19
259.94 5.5834e-19
264.16 6.2936e-19
269.07 6.8533e-19
274.08 7.4114e-19
279.17 7.9965e-19
283.71 8.6278e-19
290.32 8.9929e-19
295.71 9.9517e-19
301.21 1.0517e-18
308.23 1.1639e-18
318.32 1.3394e-18
328.0 1.4993e-18
337.96 1.6516e-18
348.23 1.8026e-18
357.17 1.9539e-18
366.33 2.1276e-18
374.86 2.2746e-18
385.36 2.3654e-18
395.25 2.6116e-18
405.39 2.8048e-18
413.88 2.9437e-18
421.57 3.0542e-18
430.4 3.1688e-18
441.44 3.3721e-18
450.68 3.5067e-18
460.12 3.6216e-18
469.75 3.7748e-18
479.59 3.9437e-18
489.63 4.0355e-18
499.89 4.2257e-18
505.67 4.3441e-18
511.53 5.259e-18
519.84 5.4438e-18
529.51 5.6351e-18
540.59 5.6481e-18
549.38 6.4402e-18
559.59 7.1598e-18
569.99 7.8145e-18
580.59 7.8325e-18
590.03 8.9104e-18
599.61 9.2236e-18
609.36 9.8832e-18
620.68 1.1612e-17
629.32 1.25e-17
639.54 1.2969e-17
649.94 1.4518e-17
657.46 1.5449e-17
665.07 1.6478e-17
674.33 1.7096e-17
685.28 1.7215e-17
694.82 2.1622e-17
704.48 2.113e-17
715.93 2.5462e-17
725.89 2.7096e-17
734.3 2.8635e-17
744.51 3.2426e-17
754.87 3.5148e-17
765.37 3.7316e-17
774.23 4.1966e-17
785.0 4.5593e-17
794.09 4.8854e-17
805.14 5.2107e-17
814.46 5.5195e-17
825.79 6.1503e-17
835.35 5.2227e-17
845.03 6.7748e-17
854.81 7.1105e-17
864.71 7.8145e-17
874.72 8.529e-17
884.85 9.4167e-17
895.1 1.0137e-16
905.46 1.0373e-16
915.95 1.5592e-16
924.42 1.0421e-15
935.13 2.3276e-15
945.96 4.5175e-15
954.71 6.5148e-15
965.76 7.4285e-15
974.7 1.1965e-15
985.99 6.4106e-15
995.11 6.9167e-15
1004.32 1.0325e-14
1015.95 1.0067e-14
1025.35 4.3843e-15
1034.83 7.1763e-15
1044.41 1.409e-14
1054.07 1.396e-14
1063.83 1.1089e-14
1076.14 1.3425e-14
1086.1 1.0663e-14
1096.15 1.4418e-14
1103.75 1.396e-14
1113.96 1.3549e-14
1124.27 1.2243e-14
1134.67 1.5845e-14
1145.17 1.4518e-14
1155.77 1.5628e-14
1163.78 1.6252e-14
1174.55 1.1243e-14
1185.42 1.6066e-14
1193.63 1.114e-14
1204.68 8.0334e-15
1215.82 5.4815e-15
1224.25 1.1295e-14
1235.58 1.7334e-14
1244.14 1.9226e-14
1255.66 1.8488e-14
1264.36 1.6029e-14
1276.06 2.0936e-14
1284.9 2.2126e-14
1293.81 1.7535e-14
1305.78 1.7494e-14
1314.83 2.2177e-14
1323.95 2.1325e-14
1336.2 1.9006e-14
1345.46 2.2851e-14
1354.79 2.2279e-14
1364.18 1.9994e-14
1373.63 2.1179e-14
1386.34 2.1572e-14
1395.95 1.8702e-14
1405.63 1.9584e-14
1415.37 2.0366e-14
1425.18 2.1033e-14
1435.06 2.1081e-14
1441.69 2.2331e-14
1448.34 2.2746e-14
1455.03 2.2228e-14
1465.11 2.0602e-14
1475.27 2.0744e-14
1485.49 2.1228e-14
1495.79 2.1722e-14
1506.16 2.0649e-14
1513.11 1.8446e-14
1516.6 1.9856e-14
1523.6 1.936e-14
1534.16 1.69e-14
1544.79 1.8531e-14
1555.5 1.7656e-14
1566.28 1.8193e-14
1573.51 1.9539e-14
1584.42 2.0602e-14
1595.4 2.113e-14
1606.46 2.084e-14
1613.88 2.1033e-14
1625.06 2.004e-14
1636.33 2.1424e-14
1643.88 2.1873e-14
1655.28 2.0366e-14
1666.75 2.2331e-14
1670.59 2.004e-14
1678.3 2.2641e-14
1686.05 2.3599e-14
1693.83 2.2279e-14
1705.57 2.1523e-14
1713.45 2.0507e-14
1725.32 2.046e-14
1733.29 2.1923e-14
1745.3 2.1523e-14
1753.36 2.3009e-14
1765.51 2.1276e-14
1773.66 2.1822e-14
1785.96 2.2331e-14
1794.2 2.3873e-14
1806.64 2.3763e-14
1814.97 2.2024e-14
1823.35 2.2641e-14
1835.99 2.1873e-14
1844.47 2.0179e-14
1852.98 2.0366e-14
1865.82 2.1081e-14
1874.44 2.2798e-14
1883.09 2.1081e-14
1896.14 2.0319e-14
1904.89 2.1622e-14
1913.69 2.0888e-14
1926.95 2.0554e-14
1935.85 2.1276e-14
1944.78 2.2279e-14
1953.76 2.0888e-14
1967.3 2.2956e-14
1976.38 2.3654e-14
1985.5 2.2434e-14
1994.67 2.1923e-14
2003.87 2.2641e-14
2013.12 2.1973e-14
2027.08 2.3062e-14
2036.43 2.1923e-14
2045.83 2.2798e-14
2055.28 2.1622e-14
2064.76 2.1923e-14
2074.3 2.3654e-14
2079.08 2.2589e-14
2083.87 2.3437e-14
2093.49 2.2279e-14
2103.15 2.2537e-14
2112.86 2.2851e-14
2122.61 2.3222e-14
2137.33 2.1822e-14
2147.19 2.2331e-14
2157.1 2.3222e-14
2167.06 2.2589e-14
2177.06 2.2485e-14
2187.11 2.2177e-14
2197.2 2.3222e-14
2207.35 2.2693e-14
2217.54 2.1722e-14
2222.65 2.1179e-14
2232.91 2.2537e-14
2243.21 2.1722e-14
2253.57 2.0936e-14
2263.97 2.1424e-14
2274.42 2.1973e-14
2284.92 2.2537e-14
2295.46 2.1326e-14
2306.06 2.1523e-14
2316.7 2.0649e-14
2327.4 1.6784e-14
2332.76 1.9449e-14
2343.53 1.8963e-14
2354.35 2.0366e-14
2365.21 1.8919e-14
2376.13 1.9449e-14
2387.1 1.8235e-14
2392.6 1.9315e-14
2403.65 1.866e-14
2414.74 1.9094e-14
2425.89 2.0133e-14
2437.08 1.9449e-14
2442.7 2.046e-14
2453.98 2.0226e-14
2465.3 2.0133e-14
2476.68 1.9494e-14
2482.39 1.9857e-14
2493.85 1.8489e-14
2505.36 2.0745e-14
2511.14 1.8703e-14
2516.93 1.9227e-14
2522.73 1.8574e-14
2534.37 1.8833e-14
2546.07 1.8574e-14
2557.82 1.9811e-14
2563.72 1.936e-14
2575.55 2.0366e-14
2587.44 2.018e-14
2593.41 1.9949e-14
2605.38 1.936e-14
2617.4 1.9139e-14
2623.44 1.9903e-14
2635.55 2.0508e-14
2647.71 2.2025e-14
2653.81 2.2486e-14
2666.06 2.065e-14
2672.21 2.1474e-14
2684.54 2.1524e-14
2696.94 2.0555e-14
2703.15 2.1131e-14
2715.63 2.018e-14
2721.89 2.0134e-14
2734.45 2.0986e-14
2747.08 1.866e-14
2753.41 1.9051e-14
2766.12 1.9721e-14
2772.49 2.0508e-14
2785.29 1.9495e-14
2798.15 1.6365e-14
2804.6 1.7375e-14
2817.54 2.0367e-14
2824.04 2.1278e-14
2837.07 2.0555e-14
2843.61 2.0088e-14
2856.74 1.9361e-14
2863.32 2.1131e-14
2876.54 2.118e-14
2883.17 2.1083e-14
2896.48 2.1083e-14
2909.85 2.2643e-14
2930.02 2.1874e-14
2950.33 2.1574e-14
2970.78 2.1925e-14
2991.37 2.1925e-14
3012.11 2.2128e-14
3032.99 2.2179e-14
3046.99 2.223e-14
3068.11 2.2333e-14
3089.37 2.2436e-14
3110.79 2.2487e-14
3132.35 2.2179e-14
3146.81 2.2281e-14
3168.62 2.2384e-14
3190.59 2.1377e-14
3212.7 2.2077e-14
3227.53 2.1181e-14
3249.9 2.2384e-14
3272.43 2.3118e-14
3287.54 2.2959e-14
3310.33 2.2853e-14
3325.6 2.3118e-14
3333.27 2.3494e-14
3340.95 2.2385e-14
3348.66 2.393e-14
3356.37 2.3012e-14
3364.11 2.1084e-14
3371.87 2.1279e-14
3379.64 2.3118e-14
3387.43 2.3278e-14
3395.24 2.2801e-14
3403.07 2.3657e-14
3410.91 2.2231e-14
3418.78 2.2488e-14
3426.66 2.3118e-14
3434.55 2.4041e-14
3442.47 2.2437e-14
3450.41 2.2959e-14
3458.36 2.2644e-14
3466.34 2.2385e-14
3474.33 2.3225e-14
3482.33 2.2437e-14
3490.36 2.3332e-14
3498.41 2.1976e-14
3506.47 2.3172e-14
3514.56 2.2231e-14
3522.66 2.3332e-14
3530.78 2.2231e-14
3538.92 2.3494e-14
3547.08 2.3821e-14
3555.25 2.3766e-14
3563.45 2.344e-14
3571.66 2.2231e-14
3579.9 2.1876e-14
3588.15 2.0228e-14
3596.42 2.218e-14
3604.71 2.3172e-14
3613.02 2.1775e-14
3621.35 2.2027e-14
3629.7 2.5175e-14
3635.76 2.6181e-14
3638.48 2.5223e-14
3641.2 2.5185e-14
3643.92 2.3615e-14
3646.63 2.3471e-14
3649.35 2.3468e-14
3652.07 2.3588e-14
3654.79 2.3604e-14
3657.51 2.6045e-14
3660.22 2.5601e-14
3662.94 2.4288e-14
3665.66 2.5011e-14
3668.38 2.5599e-14
3671.09 2.4208e-14
3673.81 2.4144e-14
3676.53 2.364e-14
3679.25 2.334e-14
3681.96 2.3643e-14
3684.68 2.2308e-14
3687.4 2.2468e-14
3690.12 2.294e-14
3692.84 2.433e-14
3695.55 2.4909e-14
3698.27 2.3798e-14
3700.99 2.4523e-14
3703.71 2.4681e-14
3706.42 2.3418e-14
3709.14 2.3135e-14
3711.86 2.3383e-14
3714.58 2.5362e-14
3717.29 2.593e-14
3720.01 2.8693e-14
3722.73 3.5911e-14
3725.45 4.6448e-14
3728.17 5.0091e-14
3730.88 4.6057e-14
3733.6 3.53e-14
3736.32 2.8403e-14
3739.04 2.5543e-14
3741.75 2.5085e-14
3744.47 2.5468e-14
3747.19 2.4254e-14
3749.91 2.3868e-14
3752.63 2.4343e-14
3755.34 2.4393e-14
3758.06 2.6308e-14
3760.78 2.7591e-14
3763.5 2.8707e-14
3766.21 2.7093e-14
3768.93 2.6717e-14
3771.65 2.5449e-14
3774.37 2.7783e-14
3777.08 3.0001e-14
3779.8 3.0346e-14
3782.52 3.2442e-14
3785.24 3.3973e-14
3787.96 3.4726e-14
3790.67 3.0029e-14
3793.39 2.7899e-14
3796.11 2.5642e-14
3798.83 2.5899e-14
3801.54 2.88e-14
3804.26 3.0384e-14
3806.98 3.1502e-14
3809.7 3.4466e-14
3812.41 3.423e-14
3815.13 3.4031e-14
3817.85 3.2496e-14
3820.57 3.2289e-14
3823.29 3.2686e-14
3826.0 3.1837e-14
3828.72 2.9488e-14
3831.44 2.7007e-14
3834.16 2.6482e-14
3836.87 2.5627e-14
3839.59 2.6501e-14
3842.31 2.8635e-14
3845.03 3.1609e-14
3847.74 3.1841e-14
3850.46 3.3893e-14
3853.18 3.539e-14
3855.9 3.374e-14
3858.62 3.5493e-14
3861.33 3.577e-14
3864.05 3.6321e-14
3866.77 3.5532e-14
3869.49 3.5937e-14
3872.2 3.6227e-14
3874.92 3.3663e-14
3877.64 3.3002e-14
3880.36 3.212e-14
3883.08 3.098e-14
3885.79 3.0078e-14
3888.51 2.9043e-14
3891.23 2.8476e-14
3893.95 2.9251e-14
3896.66 2.94e-14
3899.38 3.1825e-14
3902.1 3.3759e-14
3904.82 3.3306e-14
3907.53 3.5585e-14
3910.25 3.6288e-14
3912.97 3.6383e-14
3915.69 3.6839e-14
3918.41 3.6377e-14
3921.12 3.526e-14
3923.84 3.4942e-14
3926.56 3.3936e-14
3929.28 3.029e-14
3931.99 2.8153e-14
3934.71 2.7107e-14
3937.43 2.9351e-14
3940.15 3.225e-14
3942.86 3.4789e-14
3945.58 3.5462e-14
3948.3 3.4465e-14
3951.02 3.5676e-14
3953.74 3.5201e-14
3956.45 3.3337e-14
3959.17 3.2124e-14
3961.89 3.026e-14
3964.61 2.7668e-14
3967.32 2.5194e-14
3970.04 2.5029e-14
3972.76 2.6134e-14
3975.48 2.6849e-14
3978.2 2.992e-14
3980.91 3.3097e-14
3983.63 3.4907e-14
3986.35 3.5409e-14
3989.07 3.6515e-14
3991.78 3.7231e-14
3994.5 3.913e-14
3997.22 4.0093e-14
3999.94 3.8782e-14
4002.65 3.8644e-14
4005.37 3.888e-14
4008.09 3.9167e-14
4010.81 4.013e-14
4013.53 4.0805e-14
4016.24 4.0476e-14
4018.96 4.0624e-14
4021.68 4.1351e-14
4024.4 3.9107e-14
4027.11 4.1614e-14
4029.83 4.1098e-14
4032.55 3.9263e-14
4035.27 4.1295e-14
4037.98 4.1704e-14
4040.7 4.1267e-14
4043.42 4.0879e-14
4046.14 4.146e-14
4048.86 4.0672e-14
4051.57 3.9797e-14
4054.29 4.0867e-14
4057.01 4.0287e-14
4059.73 4.0329e-14
4062.44 3.901e-14
4065.16 3.9872e-14
4067.88 3.8204e-14
4070.6 4.078e-14
4073.31 3.82e-14
4076.03 3.899e-14
4078.75 3.8429e-14
4081.47 3.8188e-14
4084.19 3.7572e-14
4086.9 3.7874e-14
4089.62 3.7007e-14
4092.34 3.5584e-14
4095.06 3.473e-14
4097.77 3.5935e-14
4100.49 3.4211e-14
4103.21 3.547e-14
4105.93 3.3577e-14
4108.65 3.3908e-14
4111.36 3.4277e-14
4114.08 3.685e-14
4116.8 3.7928e-14
4119.52 3.7449e-14
4122.23 3.7135e-14
4124.95 3.9169e-14
4127.67 3.8576e-14
4130.39 3.881e-14
4133.1 3.8055e-14
4135.82 3.7598e-14
4138.54 3.9745e-14
4141.26 3.9327e-14
4143.98 3.9055e-14
4146.69 3.9239e-14
4149.41 3.9643e-14
4152.13 3.9461e-14
4154.85 3.9204e-14
4157.56 3.9948e-14
4160.28 3.9909e-14
4163.0 4.011e-14
4165.72 3.9647e-14
4168.43 3.9014e-14
4171.15 3.8945e-14
4173.87 3.7916e-14
4176.59 3.844e-14
4179.31 3.8392e-14
4182.02 3.8755e-14
4184.74 3.8879e-14
4187.46 3.9292e-14
4190.18 3.9041e-14
4192.89 3.9409e-14
4195.61 3.9445e-14
4198.33 3.8945e-14
4201.05 3.7748e-14
4203.77 3.8516e-14
4206.48 3.9533e-14
4209.2 3.9804e-14
4211.92 4.0024e-14
4214.64 4.0119e-14
4217.35 3.9202e-14
4220.07 4.0408e-14
4222.79 3.913e-14
4225.51 3.9188e-14
4228.22 3.8114e-14
4230.94 3.7806e-14
4233.66 3.8741e-14
4236.38 3.9901e-14
4239.1 3.9686e-14
4241.81 3.9237e-14
4244.53 3.9367e-14
4247.25 3.9584e-14
4249.97 3.9608e-14
4252.68 3.9453e-14
4255.4 3.8725e-14
4258.12 3.9068e-14
4260.84 3.9143e-14
4263.55 3.9522e-14
4266.27 3.9984e-14
4268.99 4.0347e-14
4271.71 3.944e-14
4274.43 3.9155e-14
4277.14 3.9553e-14
4279.86 3.9361e-14
4282.58 3.9325e-14
4285.3 3.8488e-14
4288.01 3.8392e-14
4290.73 3.8066e-14
4293.45 3.7215e-14
4296.17 3.7114e-14
4298.88 3.6339e-14
4301.6 3.5837e-14
4304.32 3.5086e-14
4307.04 3.5293e-14
4309.76 3.5295e-14
4312.47 3.545e-14
4315.19 3.7598e-14
4317.91 3.778e-14
4320.63 3.8414e-14
4323.34 3.7282e-14
4326.06 3.6862e-14
4328.78 3.6577e-14
4331.5 3.6697e-14
4334.22 3.7561e-14
4336.93 3.9823e-14
4339.65 4.1207e-14
4342.37 3.9401e-14
4345.09 3.7136e-14
4347.8 3.5259e-14
4350.52 3.5321e-14
4353.24 3.6308e-14
4355.96 3.8038e-14
4358.67 3.9286e-14
4361.39 4.0107e-14
4364.11 3.9961e-14
4366.83 4.062e-14
4369.55 3.9772e-14
4372.26 3.9452e-14
4374.98 3.9579e-14
4377.7 3.951e-14
4380.42 3.8136e-14
4383.13 3.7841e-14
4385.85 3.8268e-14
4388.57 3.7688e-14
4391.29 3.8255e-14
4394.0 3.882e-14
4396.72 3.9761e-14
4399.44 3.9535e-14
4402.16 3.9373e-14
4404.88 3.948e-14
4407.59 3.8993e-14
4410.31 3.9359e-14
4413.03 3.8973e-14
4415.75 3.9021e-14
4418.46 3.9492e-14
4421.18 3.9957e-14
4423.9 4.0367e-14
4426.62 4.0518e-14
4429.34 3.949e-14
4432.05 3.8791e-14
4434.77 3.923e-14
4437.49 4.0363e-14
4440.21 4.0592e-14
4442.92 4.0263e-14
4445.64 4.0604e-14
4448.36 4.1107e-14
4451.08 4.0796e-14
4453.79 4.03e-14
4456.51 4.0062e-14
4459.23 3.9494e-14
4461.95 3.9902e-14
4464.67 3.9466e-14
4467.38 3.995e-14
4470.1 4.0332e-14
4472.82 4.032e-14
4475.54 4.0645e-14
4478.25 4.036e-14
4480.97 4.0306e-14
4483.69 4.0491e-14
4486.41 4.1046e-14
4489.12 4.0741e-14
4491.84 4.1016e-14
4494.56 4.0528e-14
4497.28 4.0846e-14
4500.0 4.1774e-14
4502.71 4.2957e-14
4505.43 4.3455e-14
4508.15 4.3522e-14
4510.87 4.3244e-14
4513.58 4.2595e-14
4516.3 4.2401e-14
4519.02 4.2396e-14
4521.74 4.2006e-14
4524.45 4.055e-14
4527.17 3.9909e-14
4529.89 3.9852e-14
4532.61 3.9644e-14
4535.33 3.942e-14
4538.04 4.0934e-14
4540.76 4.0948e-14
4543.48 4.1964e-14
4546.2 4.1204e-14
4548.91 4.0506e-14
4551.63 4.014e-14
4554.35 3.9667e-14
4557.07 4.0447e-14
4559.79 4.1631e-14
4562.5 4.1836e-14
4565.22 4.2174e-14
4567.94 4.1279e-14
4570.66 4.1964e-14
4573.37 4.2042e-14
4576.09 4.2174e-14
4578.81 4.1242e-14
4581.53 4.1175e-14
4584.24 4.0386e-14
4586.96 4.0994e-14
4589.68 4.131e-14
4592.4 4.1576e-14
4595.12 4.1215e-14
4597.83 4.0904e-14
4600.55 4.0998e-14
4603.27 4.1284e-14
4605.99 4.1925e-14
4608.7 4.166e-14
4611.42 4.3318e-14
4614.14 4.2959e-14
4616.86 4.1881e-14
4619.57 4.1941e-14
4622.29 4.1404e-14
4625.01 4.2114e-14
4627.73 4.2524e-14
4630.45 4.1555e-14
4633.16 4.1571e-14
4635.88 4.0602e-14
4638.6 4.1678e-14
4641.32 4.111e-14
4644.03 4.0979e-14
4646.75 4.049e-14
4649.47 4.0495e-14
4652.19 4.0816e-14
4654.91 4.1362e-14
4657.62 4.0908e-14
4660.34 4.1905e-14
4663.06 4.0049e-14
4665.78 4.089e-14
4668.49 3.9886e-14
4671.21 4.0158e-14
4673.93 4.02e-14
4676.65 4.0796e-14
4679.36 4.1019e-14
4682.08 4.0763e-14
4684.8 4.1524e-14
4687.52 4.1702e-14
4690.24 4.1702e-14
4692.95 4.1086e-14
4695.67 4.1536e-14
4698.39 4.0872e-14
4701.11 4.0487e-14
4703.82 4.0827e-14
4706.54 4.1153e-14
4709.26 4.1403e-14
4711.98 4.1786e-14
4714.69 4.192e-14
4717.41 4.0449e-14
4720.13 4.1547e-14
4722.85 4.1866e-14
4725.57 4.2431e-14
4728.28 4.0494e-14
4731.0 4.016e-14
4733.72 4.0505e-14
4736.44 4.1107e-14
4739.15 4.1245e-14
4741.87 4.1559e-14
4744.59 4.217e-14
4747.31 4.1843e-14
4750.02 4.2806e-14
4752.74 4.2341e-14
4755.46 4.26e-14
4758.18 4.2194e-14
4760.9 4.1259e-14
4763.61 4.1832e-14
4766.33 4.1382e-14
4769.05 4.1121e-14
4771.77 4.1252e-14
4774.48 4.0792e-14
4777.2 4.1264e-14
4779.92 4.163e-14
4782.64 4.1601e-14
4785.36 4.1172e-14
4788.07 4.1648e-14
4790.79 4.1583e-14
4793.51 4.1949e-14
4796.23 4.1577e-14
4798.94 4.1983e-14
4801.66 4.2205e-14
4804.38 4.1635e-14
4807.1 4.1711e-14
4809.81 4.1854e-14
4812.53 4.179e-14
4815.25 4.2635e-14
4817.97 4.1811e-14
4820.69 4.2164e-14
4823.4 4.1919e-14
4826.12 4.1141e-14
4828.84 4.0222e-14
4831.56 4.0579e-14
4834.27 4.0941e-14
4836.99 3.9523e-14
4839.71 3.9274e-14
4842.43 4.0296e-14
4845.14 3.9279e-14
4847.86 3.7766e-14
4850.58 3.9075e-14
4853.3 4.0212e-14
4856.02 4.6134e-14
4858.73 5.5639e-14
4861.45 6.0103e-14
4864.17 5.5507e-14
4866.89 4.5949e-14
4869.6 3.812e-14
4872.32 3.5663e-14
4875.04 3.6086e-14
4877.76 3.7382e-14
4880.48 3.7966e-14
4883.19 3.8088e-14
4885.91 3.8437e-14
4888.63 3.807e-14
4891.35 3.8825e-14
4894.06 3.9471e-14
4896.78 3.9428e-14
4899.5 4.0104e-14
4902.22 3.9646e-14
4904.93 3.9931e-14
4907.65 4.0512e-14
4910.37 4.0008e-14
4913.09 3.963e-14
4915.81 3.9538e-14
4918.52 3.8906e-14
4921.24 3.7906e-14
4923.96 3.8718e-14
4926.68 3.945e-14
4929.39 4.0477e-14
4932.11 4.0546e-14
4934.83 3.9465e-14
4937.55 4.0183e-14
4940.26 4.102e-14
4942.98 4.0736e-14
4945.7 4.0765e-14
4948.42 4.1457e-14
4951.14 4.1822e-14
4953.85 4.1388e-14
4956.57 4.1325e-14
4959.29 4.1942e-14
4962.01 4.1718e-14
4964.72 4.1625e-14
4967.44 3.9791e-14
4970.16 3.9855e-14
4972.88 4.0122e-14
4975.59 4.017e-14
4978.31 3.9123e-14
4981.03 3.9985e-14
4983.75 3.9388e-14
4986.47 3.901e-14
4989.18 3.9713e-14
4991.9 3.9743e-14
4994.62 3.9597e-14
4997.34 3.9939e-14
5000.05 4.0755e-14
5002.77 4.2009e-14
5005.49 4.3778e-14
5008.21 4.3902e-14
5010.93 4.1614e-14
5013.64 3.9772e-14
5016.36 3.7951e-14
5019.08 3.7623e-14
5021.8 3.7462e-14
5024.51 3.8586e-14
5027.23 3.8452e-14
5029.95 3.8622e-14
5032.67 3.9161e-14
5035.38 3.8885e-14
5038.1 3.8664e-14
5040.82 3.712e-14
5043.54 3.8144e-14
5046.26 3.8429e-14
5048.97 3.8902e-14
5051.69 3.9274e-14
5054.41 3.8625e-14
5057.13 3.9579e-14
5059.84 4.0048e-14
5062.56 4.0386e-14
5065.28 3.9588e-14
5068.0 3.8965e-14
5070.71 3.8478e-14
5073.43 3.9162e-14
5076.15 3.9072e-14
5078.87 3.8896e-14
5081.59 3.8361e-14
5084.3 3.8444e-14
5087.02 3.8758e-14
5089.74 3.9426e-14
5092.46 4.0003e-14
5095.17 3.9776e-14
5097.89 3.9504e-14
5100.61 3.8711e-14
5103.33 3.8208e-14
5106.05 3.8612e-14
5108.76 3.8547e-14
5111.48 3.9232e-14
5114.2 3.9298e-14
5116.92 3.9265e-14
5119.63 3.9408e-14
5122.35 3.837e-14
5125.07 3.8215e-14
5127.79 3.7739e-14
5130.5 3.7977e-14
5133.22 3.8714e-14
5135.94 3.8805e-14
5138.66 3.763e-14
5141.38 3.7854e-14
5144.09 3.7383e-14
5146.81 3.7985e-14
5149.53 3.7776e-14
5152.25 3.7773e-14
5154.96 3.7781e-14
5157.68 3.815e-14
5160.4 3.8389e-14
5163.12 3.7676e-14
5165.83 3.6388e-14
5168.55 3.5433e-14
5171.27 3.4507e-14
5173.99 3.5045e-14
5176.71 3.5797e-14
5179.42 3.6115e-14
5182.14 3.6572e-14
5184.86 3.594e-14
5187.58 3.6155e-14
5190.29 3.6999e-14
5193.01 3.7765e-14
5195.73 3.8563e-14
5198.45 3.9585e-14
5201.16 3.9029e-14
5203.88 3.844e-14
5206.6 3.8273e-14
5209.32 3.7985e-14
5212.04 3.8043e-14
5214.75 3.8285e-14
5217.47 3.9025e-14
5220.19 3.9525e-14
5222.91 3.909e-14
5225.62 3.8145e-14
5228.34 3.8324e-14
5231.06 3.8318e-14
5233.78 3.9089e-14
5236.5 3.9529e-14
5239.21 3.9824e-14
5241.93 4.0378e-14
5244.65 3.9965e-14
5247.37 3.9969e-14
5250.08 4.0144e-14
5252.8 3.9587e-14
5255.52 3.9268e-14
5258.24 3.9608e-14
5260.95 3.9193e-14
5263.67 3.8208e-14
5266.39 3.7127e-14
5269.11 3.6882e-14
5271.83 3.723e-14
5274.54 3.8286e-14
5277.26 3.9237e-14
5279.98 4.0037e-14
5282.7 4.0086e-14
5285.41 4.1229e-14
5288.13 4.1271e-14
5290.85 4.1464e-14
5293.57 4.1016e-14
5296.28 4.0996e-14
5299.0 4.1159e-14
5301.72 4.1139e-14
5304.44 4.1379e-14
5307.16 4.1752e-14
5309.87 4.155e-14
5312.59 4.1977e-14
5315.31 4.1312e-14
5318.03 4.0941e-14
5320.74 4.0921e-14
5323.46 4.0229e-14
5326.18 3.9463e-14
5328.9 3.8669e-14
5331.62 3.9816e-14
5334.33 4.0265e-14
5337.05 3.975e-14
5339.77 4.0026e-14
5342.49 3.9963e-14
5345.2 3.9466e-14
5347.92 3.9368e-14
5350.64 4.0306e-14
5353.36 4.0483e-14
5356.07 4.1679e-14
5358.79 4.2243e-14
5361.51 4.1651e-14
5364.23 4.0563e-14
5366.95 3.9499e-14
5369.66 3.9764e-14
5372.38 3.962e-14
5375.1 4.0422e-14
5377.82 4.0802e-14
5380.53 4.1235e-14
5383.25 4.0439e-14
5385.97 4.0838e-14
5388.69 4.1357e-14
5391.4 4.0341e-14
5394.12 4.0022e-14
5396.84 3.9265e-14
5399.56 3.9794e-14
5402.28 3.928e-14
5404.99 3.9211e-14
5407.71 3.9184e-14
5410.43 3.9244e-14
5413.15 3.9798e-14
5415.86 3.9603e-14
5418.58 4.0643e-14
5421.3 4.0421e-14
5424.02 4.0886e-14
5426.73 4.0363e-14
5429.45 3.9789e-14
5432.17 4.0613e-14
5434.89 4.0476e-14
5437.61 4.0956e-14
5440.32 4.084e-14
5443.04 4.0618e-14
5445.76 4.0213e-14
5448.48 4.0704e-14
5451.19 4.0355e-14
5453.91 4.0811e-14
5456.63 4.1032e-14
5459.35 4.0896e-14
5462.07 3.9943e-14
5464.78 3.9707e-14
5467.5 3.9699e-14
5470.22 3.9235e-14
5472.94 3.9914e-14
5475.65 3.9439e-14
5478.37 3.9928e-14
5481.09 3.9737e-14
5483.81 3.8548e-14
5486.52 3.9218e-14
5489.24 3.8996e-14
5491.96 3.9721e-14
5494.68 3.9292e-14
5497.4 4.0412e-14
5500.11 3.9601e-14
5502.83 3.9668e-14
5505.55 3.9045e-14
5508.27 3.8898e-14
5510.98 3.8292e-14
5513.7 3.8103e-14
5516.42 3.9039e-14
5519.14 3.9147e-14
5521.85 3.946e-14
5524.57 3.955e-14
5527.29 3.9766e-14
5530.01 3.9237e-14
5532.73 3.956e-14
5535.44 3.9119e-14
5538.16 4.0118e-14
5540.88 4.0775e-14
5543.6 4.0047e-14
5546.31 4.1234e-14
5549.03 4.0797e-14
5551.75 4.1408e-14
5554.47 4.1305e-14
5557.19 4.0734e-14
5559.9 4.1079e-14
5562.62 4.0344e-14
5565.34 4.0658e-14
5568.06 3.9869e-14
5570.77 4.0272e-14
5573.49 4.0559e-14
5576.21 4.0832e-14
5578.93 4.0927e-14
5581.64 4.0406e-14
5584.36 4.0072e-14
5587.08 3.9571e-14
5589.8 3.9493e-14
5592.52 3.8717e-14
5595.23 3.9633e-14
5597.95 3.9506e-14
5600.67 4.0007e-14
5603.39 4.0151e-14
5606.1 3.9773e-14
5608.82 4.1121e-14
5611.54 4.0193e-14
5614.26 4.0977e-14
5616.97 3.9668e-14
5619.69 4.015e-14
5622.41 4.032e-14
5625.13 3.9737e-14
5627.85 3.9985e-14
5630.56 3.9164e-14
5633.28 4.0418e-14
5636.0 4.0519e-14
5638.72 4.0514e-14
5641.43 4.0082e-14
5644.15 3.9232e-14
5646.87 4.0689e-14
5649.59 4.0385e-14
5652.3 4.0792e-14
5655.02 3.9924e-14
5657.74 4.008e-14
5660.46 3.9763e-14
5663.18 3.973e-14
5665.89 3.8855e-14
5668.61 3.9673e-14
5671.33 3.976e-14
5674.05 4.077e-14
5676.76 4.1407e-14
5679.48 4.0098e-14
5682.2 4.0222e-14
5684.92 4.0467e-14
5687.64 3.941e-14
5690.35 3.9704e-14
5693.07 4.0468e-14
5695.79 4.0798e-14
5698.51 4.0191e-14
5701.22 4.0156e-14
5703.94 3.9503e-14
5706.66 3.9084e-14
5709.38 3.8477e-14
5712.09 3.8862e-14
5714.81 3.9838e-14
5717.53 4.1002e-14
5720.25 4.0713e-14
5722.97 4.1052e-14
5725.68 4.1093e-14
5728.4 4.0793e-14
5731.12 4.0853e-14
5733.84 4.0666e-14
5736.55 4.1459e-14
5739.27 4.1696e-14
5741.99 4.1063e-14
5744.71 4.0609e-14
5747.42 4.0776e-14
5750.14 4.1156e-14
5752.86 4.1033e-14
5755.58 4.0713e-14
5758.3 4.0367e-14
5761.01 4.0395e-14
5763.73 4.0613e-14
5766.45 4.0336e-14
5769.17 4.0103e-14
5771.88 4.0574e-14
5774.6 4.0289e-14
5777.32 3.9798e-14
5780.04 3.9098e-14
5782.76 3.8541e-14
5785.47 3.8953e-14
5788.19 4.0112e-14
5790.91 4.0646e-14
5793.63 3.9706e-14
5796.34 4.0379e-14
5799.06 4.015e-14
5801.78 3.9848e-14
5804.5 4.0763e-14
5807.21 4.098e-14
5809.93 4.0684e-14
5812.65 3.9903e-14
5815.37 4.0665e-14
5818.09 4.1274e-14
5820.8 4.131e-14
5823.52 4.086e-14
5826.24 4.097e-14
5828.96 4.0692e-14
5831.67 4.1448e-14
5834.39 4.0371e-14
5837.11 4.0394e-14
5839.83 4.2314e-14
5842.54 4.1134e-14
5845.26 4.1267e-14
5847.98 3.9879e-14
5850.7 4.0097e-14
5853.42 3.9636e-14
5856.13 3.898e-14
5858.85 3.9332e-14
5861.57 3.9248e-14
5864.29 3.8884e-14
5867.0 4.0303e-14
5869.72 4.1763e-14
5872.44 4.2858e-14
5875.16 4.2586e-14
5877.87 4.2341e-14
5880.59 4.1212e-14
5883.31 3.9297e-14
5886.03 3.8039e-14
5888.75 3.5285e-14
5891.46 3.3229e-14
5894.18 3.3563e-14
5896.9 3.5384e-14
5899.62 3.7121e-14
5902.33 3.8433e-14
5905.05 3.904e-14
5907.77 3.9257e-14
5910.49 3.9305e-14
5913.21 3.9597e-14
5915.92 3.8857e-14
5918.64 3.934e-14
5921.36 3.9706e-14
5924.08 3.9048e-14
5926.79 3.8997e-14
5929.51 3.9105e-14
5932.23 3.9801e-14
5934.95 3.9523e-14
5937.66 3.9289e-14
5940.38 4.0107e-14
5943.1 3.9231e-14
5945.82 3.9165e-14
5948.54 3.9525e-14
5951.25 3.9589e-14
5953.97 3.8386e-14
5956.69 3.9286e-14
5959.41 3.9348e-14
5962.12 3.9343e-14
5964.84 3.9693e-14
5967.56 3.9527e-14
5970.28 3.9382e-14
5972.99 3.9583e-14
5975.71 3.9207e-14
5978.43 3.8879e-14
5981.15 3.8548e-14
5983.87 3.8539e-14
5986.58 3.8466e-14
5989.3 3.8668e-14
5992.02 4.0123e-14
5994.74 3.9279e-14
5997.45 3.8742e-14
6000.17 3.8522e-14
6002.89 3.8656e-14
6005.61 3.8748e-14
6008.33 3.8407e-14
6011.04 3.7715e-14
6013.76 3.8404e-14
6016.48 3.8627e-14
6019.2 3.8889e-14
6021.91 3.8821e-14
6024.63 3.8997e-14
6027.35 3.8371e-14
6030.07 3.9453e-14
6032.78 3.9612e-14
6035.5 3.9571e-14
6038.22 3.8617e-14
6040.94 3.9897e-14
6043.66 3.9374e-14
6046.37 3.9585e-14
6049.09 3.988e-14
6051.81 4.0647e-14
6054.53 3.9836e-14
6057.24 3.875e-14
6059.96 3.9282e-14
6062.68 3.9797e-14
6065.4 3.9944e-14
6068.11 4.087e-14
6070.83 4.0565e-14
6073.55 4.046e-14
6076.27 3.98e-14
6078.99 3.9692e-14
6081.7 3.8592e-14
6084.42 3.9249e-14
6087.14 3.9033e-14
6089.86 3.861e-14
6092.57 3.9006e-14
6095.29 3.9332e-14
6098.01 3.8686e-14
6100.73 3.8288e-14
6103.44 3.859e-14
6106.16 3.8449e-14
6108.88 3.8948e-14
6111.6 3.9682e-14
6114.32 3.9171e-14
6117.03 3.7953e-14
6119.75 3.8279e-14
6122.47 3.8106e-14
6125.19 3.8476e-14
6127.9 3.8706e-14
6130.62 3.9707e-14
6133.34 3.905e-14
6136.06 3.7852e-14
6138.78 3.7435e-14
6141.49 3.8581e-14
6144.21 3.833e-14
6146.93 3.8187e-14
6149.65 3.8151e-14
6152.36 3.797e-14
6155.08 3.8575e-14
6157.8 3.7927e-14
6160.52 3.6699e-14
6163.23 3.6671e-14
6165.95 3.6741e-14
6168.67 3.7122e-14
6171.39 3.7634e-14
6174.11 3.7817e-14
6176.82 3.7634e-14
6179.54 3.771e-14
6182.26 3.8413e-14
6184.98 3.8897e-14
6187.69 3.8349e-14
6190.41 3.7031e-14
6193.13 3.7055e-14
6195.85 3.7208e-14
6198.56 3.8429e-14
6201.28 3.9346e-14
6204.0 3.8977e-14
6206.72 3.8603e-14
6209.44 3.781e-14
6212.15 3.8914e-14
6214.87 3.7485e-14
6217.59 3.8635e-14
6220.31 3.6903e-14
6223.02 3.6824e-14
6225.74 3.7271e-14
6228.46 3.6392e-14
6231.18 3.755e-14
6233.9 3.6924e-14
6236.61 3.7786e-14
6239.33 3.7011e-14
6242.05 3.6302e-14
6244.77 3.6914e-14
6247.48 3.6571e-14
6250.2 3.7067e-14
6252.92 3.6924e-14
6255.64 3.6486e-14
6258.35 3.5821e-14
6261.07 3.7611e-14
6263.79 3.6944e-14
6266.51 3.6683e-14
6269.23 3.7244e-14
6271.94 3.7479e-14
6274.66 3.7574e-14
6277.38 3.7339e-14
6280.1 3.6978e-14
6282.81 3.7271e-14
6285.53 3.7172e-14
6288.25 3.8939e-14
6290.97 3.6206e-14
6293.68 3.5837e-14
6296.4 3.7575e-14
6299.12 3.9744e-14
6301.84 3.9922e-14
6304.56 3.8571e-14
6307.27 3.83e-14
6309.99 3.7336e-14
6312.71 3.6744e-14
6315.43 3.6617e-14
6318.14 3.7163e-14
6320.86 3.6571e-14
6323.58 3.6877e-14
6326.3 3.6806e-14
6329.01 3.736e-14
6331.73 3.7781e-14
6334.45 3.7885e-14
6337.17 3.7649e-14
6339.89 3.7147e-14
6342.6 3.6915e-14
6345.32 3.7923e-14
6348.04 3.8372e-14
6350.76 3.8159e-14
6353.47 3.7818e-14
6356.19 3.7502e-14
6358.91 3.7004e-14
6361.63 3.7457e-14
6364.35 3.7677e-14
6367.06 3.7574e-14
6369.78 3.8668e-14
6372.5 3.8453e-14
6375.22 3.7537e-14
6377.93 3.8661e-14
6380.65 3.83e-14
6383.37 3.8207e-14
6386.09 3.8787e-14
6388.8 3.8422e-14
6391.52 3.7433e-14
6394.24 3.7163e-14
6396.96 3.7065e-14
6399.68 3.7678e-14
6402.39 3.7781e-14
6405.11 3.7573e-14
6407.83 3.7775e-14
6410.55 3.7903e-14
6413.26 3.7324e-14
6415.98 3.7264e-14
6418.7 3.7064e-14
6421.42 3.7662e-14
6424.13 3.7407e-14
6426.85 3.7168e-14
6429.57 3.7214e-14
6432.29 3.8295e-14
6435.01 3.8651e-14
6437.72 3.8251e-14
6440.44 3.7786e-14
6443.16 3.7387e-14
6445.88 3.7848e-14
6448.59 3.7571e-14
6451.31 3.7654e-14
6454.03 3.7629e-14
6456.75 3.8217e-14
6459.47 3.8213e-14
6462.18 3.7555e-14
6464.9 3.7921e-14
6467.62 3.7571e-14
6470.34 3.7849e-14
6473.05 3.8535e-14
6475.77 3.8008e-14
6478.49 3.7463e-14
6481.21 3.6387e-14
6483.92 3.8074e-14
6486.64 3.7538e-14
6489.36 3.7435e-14
6492.08 3.6943e-14
6494.8 3.5579e-14
6497.51 3.5062e-14
6500.23 3.668e-14
6502.95 3.7033e-14
6505.67 3.8565e-14
6508.38 3.7434e-14
6511.1 3.8257e-14
6513.82 3.6606e-14
6516.54 3.7195e-14
6519.25 3.7457e-14
6521.97 3.7331e-14
6524.69 3.7637e-14
6527.41 3.6889e-14
6530.13 3.7243e-14
6532.84 3.6771e-14
6535.56 3.7411e-14
6538.28 3.8363e-14
6541.0 4.1958e-14
6543.71 4.8284e-14
6546.43 5.3676e-14
6549.15 5.3949e-14
6551.87 5.4006e-14
6554.58 6.3739e-14
6557.3 1.0096e-13
6560.02 1.5012e-13
6562.74 1.7107e-13
6565.46 1.4416e-13
6568.17 9.8383e-14
6570.89 6.3322e-14
6573.61 4.7493e-14
6576.33 5.2499e-14
6579.04 6.9942e-14
6581.76 8.6458e-14
6584.48 8.6686e-14
6587.2 7.1314e-14
6589.92 5.4454e-14
6592.63 4.3609e-14
6595.35 3.89e-14
6598.07 3.8383e-14
6600.79 3.7753e-14
6603.5 3.781e-14
6606.22 3.7616e-14
6608.94 3.7581e-14
6611.66 3.7081e-14
6614.37 3.8033e-14
6617.09 3.8101e-14
6619.81 3.7656e-14
6622.53 3.7917e-14
6625.25 3.7794e-14
6627.96 3.6765e-14
6630.68 3.7422e-14
6633.4 3.8141e-14
6636.12 3.7268e-14
6638.83 3.6497e-14
6641.55 3.7532e-14
6644.27 3.7203e-14
6646.99 3.725e-14
6649.7 3.7689e-14
6652.42 3.7618e-14
6655.14 3.7127e-14
6657.86 3.6857e-14
6660.58 3.7529e-14
6663.29 3.6918e-14
6666.01 3.7072e-14
6668.73 3.7432e-14
6671.45 3.7336e-14
6674.16 3.805e-14
6676.88 3.7268e-14
6679.6 3.6813e-14
6682.32 3.6792e-14
6685.04 3.6797e-14
6687.75 3.7247e-14
6690.47 3.743e-14
6693.19 3.6387e-14
6695.91 3.6846e-14
6698.62 3.5784e-14
6701.34 3.6828e-14
6704.06 3.7003e-14
6706.78 3.7852e-14
6709.49 4.242e-14
6712.21 4.772e-14
6714.93 5.4927e-14
6717.65 5.4997e-14
6720.37 4.9433e-14
6723.08 4.5613e-14
6725.8 4.7058e-14
6728.52 4.9131e-14
6731.24 5.0501e-14
6733.95 4.5583e-14
6736.67 4.1687e-14
6739.39 3.8494e-14
6742.11 3.6576e-14
6744.82 3.5918e-14
6747.54 3.6596e-14
6758.82 3.5767e-14
6774.4 3.5928e-14
6790.01 3.5677e-14
6805.67 3.6336e-14
6821.35 3.6248e-14
6837.08 3.6663e-14
6852.84 3.6575e-14
6868.64 3.5329e-14
6884.47 3.5816e-14
6900.34 3.606e-14
6916.25 3.6056e-14
6932.19 3.5969e-14
6948.17 3.6465e-14
6964.19 3.6376e-14
6980.24 3.6708e-14
6996.33 3.62e-14
7012.46 3.5372e-14
7028.63 3.6275e-14
7044.83 3.5773e-14
7061.07 3.5522e-14
7077.35 3.5518e-14
7093.66 3.4785e-14
7110.02 3.4621e-14
7126.41 3.4458e-14
7142.83 3.4454e-14
7159.3 3.4608e-14
7175.8 3.4208e-14
7192.35 3.2068e-14
7208.92 3.2736e-14
7225.55 3.4911e-14
7242.2 3.3878e-14
7258.89 3.364e-14
7275.63 3.5547e-14
7292.4 3.4814e-14
7309.21 3.4569e-14
7326.06 3.4885e-14
7342.95 3.6023e-14
7359.88 3.5443e-14
7376.84 3.6097e-14
7393.85 3.4867e-14
7410.89 3.6674e-14
7427.98 3.5506e-14
7445.1 3.6496e-14
7462.26 3.6745e-14
7479.46 3.5904e-14
7496.71 3.6148e-14
7513.99 3.6143e-14
7531.31 3.6055e-14
7548.67 3.6636e-14
7566.07 3.588e-14
7583.52 3.6207e-14
7601.0 3.546e-14
7618.52 3.505e-14
7636.08 3.5779e-14
7653.68 3.5446e-14
7671.33 3.3e-14
7689.01 3.4233e-14
7706.74 3.3759e-14
7724.5 3.3522e-14
7742.31 3.4141e-14
7760.16 3.3591e-14
7778.05 3.3278e-14
7795.98 3.2969e-14
7813.95 3.3888e-14
7831.96 3.4513e-14
7850.02 3.4271e-14
7868.11 3.4663e-14
7886.25 3.3947e-14
7904.43 3.2942e-14
7922.65 3.2635e-14
7940.91 3.2481e-14
7959.22 3.3156e-14
7977.57 3.3458e-14
7995.96 3.2843e-14
8014.39 3.3526e-14
8032.87 3.3062e-14
8051.38 3.3672e-14
8069.94 3.4057e-14
8088.55 3.3124e-14
8107.19 3.2515e-14
8125.88 3.3115e-14
8144.61 3.3416e-14
8163.39 3.2426e-14
8182.21 3.4264e-14
8201.07 3.3096e-14
8219.98 3.3474e-14
8238.92 2.9693e-14
8257.92 3.4323e-14
8276.96 3.4476e-14
8296.04 3.2171e-14
8315.16 3.1725e-14
8334.33 3.2835e-14
8353.54 3.2981e-14
8372.8 3.23e-14
8392.1 3.1488e-14
8411.45 3.2891e-14
8430.83 3.2735e-14
8450.27 3.1912e-14
8469.75 3.265e-14
8489.27 3.2198e-14
8508.84 2.791e-14
8528.46 3.182e-14
8548.12 2.5213e-14
8567.82 3.2031e-14
8587.57 3.2546e-14
8607.37 3.0439e-14
8627.21 3.2164e-14
8647.1 3.2457e-14
8667.04 2.8005e-14
8687.02 3.0702e-14
8707.04 3.1196e-14
8727.11 3.2139e-14
8747.23 3.1694e-14
8767.39 3.1398e-14
8787.6 3.2273e-14
8807.86 3.2417e-14
8828.17 3.2115e-14
8848.52 3.1091e-14
8868.92 2.9824e-14
8889.36 3.0165e-14
8909.85 3.1005e-14
8930.4 3.0929e-14
8950.98 3.0711e-14
8971.61 2.9325e-14
8992.3 3.0915e-14
9013.03 2.898e-14
9033.8 2.7863e-14
9054.63 3.2656e-14
9075.5 3.2202e-14
9096.42 2.8564e-14
9117.39 2.9427e-14
9138.41 2.9832e-14
9159.48 3.0312e-14
9180.59 2.8611e-14
9201.76 3.0024e-14
9222.97 2.8734e-14
9244.23 2.9062e-14
9265.53 2.953e-14
9286.9 2.8919e-14
9308.3 2.755e-14
9329.76 3.0623e-14
9351.27 3.0618e-14
9372.83 3.0193e-14
9394.43 3.0467e-14
9416.09 2.9906e-14
9437.8 3.0598e-14
9459.55 3.0242e-14
9481.36 3.0729e-14
9503.22 3.0093e-14
9525.12 2.995e-14
9547.08 2.8729e-14
9569.09 2.9871e-14
9591.15 3.0491e-14
9613.26 3.0207e-14
9635.42 3.0271e-14
9657.63 2.9989e-14
9679.89 2.9915e-14
9702.21 2.9841e-14
9724.57 2.963e-14
9746.99 2.9489e-14
9769.46 2.9552e-14
9791.98 2.9209e-14
9814.55 2.9746e-14
9837.18 2.9537e-14
9859.86 2.96e-14
9882.59 2.9323e-14
9905.37 2.9183e-14
9928.2 2.938e-14
9951.08 2.9375e-14
9974.03 2.937e-14
9997.02 2.923e-14
10020.07 2.8957e-14
10066.31 2.8484e-14
10136.1 2.9132e-14
10182.88 2.8854e-14
10229.88 2.891e-14
10277.1 2.8966e-14
10300.79 2.8828e-14
10492.3 2.7937e-14
10712.0 2.6847e-14
10911.16 2.5757e-14
11088.45 2.4883e-14
11294.6 2.4429e-14
11504.57 2.4316e-14
11691.51 2.3708e-14
11908.87 2.2903e-14
12102.37 2.2485e-14
12299.02 2.2177e-14
12498.87 2.1572e-14
12701.96 2.1081e-14
12908.35 2.0649e-14
13087.92 2.0319e-14
13300.59 1.972e-14
13485.62 1.936e-14
13704.74 1.9006e-14
13895.38 1.8361e-14
14088.68 1.7616e-14
14284.68 1.7374e-14
14483.4 1.7414e-14
14684.88 1.69e-14
14889.17 1.7057e-14
15096.3 1.7096e-14
15306.31 1.7334e-14
15483.56 1.7175e-14
15698.96 1.6862e-14
15917.33 1.6289e-14
16101.65 1.6327e-14
16288.11 1.6252e-14
16514.7 1.6029e-14
16705.93 1.5918e-14
16899.36 1.5664e-14
17095.05 1.5378e-14
17293.01 1.4788e-14
17493.26 1.4385e-14
17695.8 1.3832e-14
17900.72 1.3363e-14
18108.0 1.2732e-14
18317.69 1.2414e-14
18487.17 1.2048e-14
18701.24 1.1505e-14
18917.8 1.1218e-14
19092.83 1.1064e-14
19313.92 1.0713e-14
19492.64 1.0301e-14
19718.36 1.0021e-14
19900.8 9.7252e-15
20084.94 9.5697e-15
20317.52 9.2448e-15
20505.5 9.139e-15
20695.25 8.9104e-15
20886.73 8.7277e-15
21080.0 8.5881e-15
21324.1 8.3927e-15
21521.39 8.2205e-15
21720.54 7.9597e-15
21921.52 7.8325e-15
22124.35 7.6366e-15
22277.72 7.4456e-15
22483.84 7.2761e-15
22691.89 7.0941e-15
22901.84 6.4106e-15
23113.76 6.3665e-15
23273.99 5.6351e-15
23489.32 5.3198e-15
23706.68 5.3939e-15
23926.02 4.9877e-15
24091.88 4.8406e-15
24314.78 4.7852e-15
24483.34 4.4864e-15
24709.86 4.4249e-15
24881.16 3.8274e-15
25111.39 3.7835e-15
25285.44 3.8098e-15
25519.42 3.7835e-15
25696.3 3.8362e-15
25874.43 3.7575e-15
26113.83 3.7489e-15
26294.85 3.6635e-15
26477.11 3.6299e-15
26722.11 3.5637e-15
26907.32 3.5148e-15
27093.85 3.4746e-15
27281.64 3.4111e-15
27470.74 3.3566e-15
27724.93 3.2878e-15
27917.13 3.2576e-15
28110.63 3.1982e-15
28305.47 3.1543e-15
28501.69 3.0967e-15
28699.24 3.0332e-15
28898.19 2.9985e-15
29098.49 2.9505e-15
29300.21 2.8967e-15
29503.29 2.8504e-15
29707.81 2.8112e-15
29913.73 2.7599e-15
30121.1 2.7158e-15
30329.87 2.6724e-15
30469.86 2.6418e-15
30681.08 2.6116e-15
30893.74 2.5757e-15
31107.9 2.5462e-15
31323.52 2.5229e-15
31468.09 2.494e-15
31686.23 2.4655e-15
31905.85 2.4541e-15
32127.04 2.4541e-15
32275.32 2.4826e-15
32499.06 2.5817e-15
32724.31 2.89e-15
32875.35 3.7748e-15
33103.25 3.7402e-15
33332.7 2.7855e-15
33486.58 2.4149e-15
33718.68 2.2485e-15
33874.31 2.1572e-15
34109.13 2.0936e-15
34266.56 2.046e-15
34504.11 2.004e-15
34663.36 1.9629e-15
34903.61 1.9271e-15
35064.75 1.8919e-15
35307.79 1.8574e-15
35470.75 1.8277e-15
35716.64 1.7943e-15
35881.49 1.7656e-15
36130.23 1.7374e-15
36296.99 1.7096e-15
36464.52 1.6784e-15
36717.3 1.6516e-15
36886.77 1.6214e-15
37142.43 1.5955e-15
37313.9 1.5736e-15
37486.13 1.5413e-15
37659.14 1.5237e-15
37920.2 1.4993e-15
38095.22 1.4754e-15
38271.05 1.4551e-15
38536.36 1.4352e-15
38714.22 1.409e-15
38892.9 1.3864e-15
39072.45 1.3674e-15
39343.27 1.3486e-15
39524.9 1.324e-15
39707.33 1.3059e-15
39890.59 1.282e-15
40074.71 1.2644e-15
40259.71 1.2471e-15
40538.76 1.2272e-15
40725.87 1.2103e-15
40913.88 1.1965e-15
41102.72 1.18e-15
41292.42 1.1639e-15
41483.05 1.1479e-15
41674.51 1.1321e-15
41866.86 1.1166e-15
42060.14 1.1013e-15
42254.27 1.0887e-15
42547.14 1.0737e-15
42743.56 1.0614e-15
42940.84 1.0301e-15
43139.04 9.9747e-16
43338.19 9.9517e-16
43538.21 9.6805e-16
43739.16 9.5038e-16
43941.04 9.3951e-16
44143.89 9.139e-16
44347.64 9.0552e-16
44449.86 8.9516e-16
44655.07 8.768e-16
44861.17 8.7277e-16
45068.23 8.6079e-16
45276.24 8.4703e-16
45485.26 8.4314e-16
45695.19 8.3541e-16
45906.1 8.1827e-16
46118.02 8.1827e-16
46330.88 8.0891e-16
46544.72 8.0149e-16
46652.01 7.9781e-16
46867.38 7.8868e-16
47083.7 7.8145e-16
47301.01 7.7965e-16
47519.38 7.7072e-16
47738.7 7.6542e-16
47848.74 7.6015e-16
48069.58 7.4972e-16
48291.5 7.5145e-16
48514.39 7.4285e-16
48738.3 7.3604e-16
48850.65 7.3097e-16
49076.17 7.2594e-16
49302.68 7.226e-16
49530.23 7.1865e-16
49644.46 7.1959e-16
49873.59 7.1815e-16
50103.78 7.2167e-16
50335.03 7.2186e-16
50451.11 7.1946e-16
50683.97 7.2129e-16
50800.8 7.222e-16
50917.9 7.2477e-16
51035.27 7.2401e-16
51152.96 7.2492e-16
51270.87 7.2582e-16
51389.06 7.2672e-16
51507.51 7.2762e-16
51626.24 7.302e-16
51745.24 7.3278e-16
51864.52 7.3199e-16
51984.13 7.3288e-16
52103.95 7.3546e-16
52224.06 7.3635e-16
52344.44 7.3724e-16
52465.1 7.3983e-16
52586.03 7.4242e-16
52707.3 7.4502e-16
52828.8 7.4763e-16
52950.57 7.4679e-16
53072.63 7.494e-16
53194.96 7.5201e-16
53317.58 7.5463e-16
53440.48 7.5725e-16
53563.72 7.6163e-16
53687.19 7.6428e-16
53810.95 7.6692e-16
53934.98 7.7135e-16
54059.31 7.7402e-16
54183.92 7.7848e-16
54308.82 7.8117e-16
54434.06 7.8567e-16
54559.54 7.9019e-16
54685.3 7.9473e-16
54811.35 7.993e-16
54937.7 8.0389e-16
55064.33 8.085e-16
55191.32 8.1501e-16
55318.54 8.2157e-16
55446.05 8.2818e-16
55573.86 8.3292e-16
55701.96 8.4155e-16
55830.36 8.4831e-16
55959.05 8.5513e-16
56088.1 8.6398e-16
56217.39 8.7292e-16
56346.98 8.8195e-16
56476.86 8.9106e-16
56607.04 9.0235e-16
56737.52 9.1377e-16
56868.37 9.2534e-16
56999.46 9.3705e-16
57130.85 9.5329e-16
57262.53 9.6757e-16
57394.53 9.8206e-16
57526.83 9.9906e-16
57659.43 1.0164e-15
57792.4 1.0363e-15
57925.62 1.0616e-15
58059.14 1.0849e-15
58192.97 1.1037e-15
58327.11 1.1332e-15
58461.56 1.1607e-15
58596.32 1.1917e-15
58731.45 1.2292e-15
58866.83 1.262e-15
59161.76 1.2775e-15
59467.97 1.3674e-15
59774.19 1.5793e-15
60080.4 1.8379e-15
60386.62 2.0171e-15
60692.84 2.0528e-15
60999.05 2.2847e-15
61305.26 3.0937e-15
61611.48 4.5834e-15
61917.7 6.0223e-15
62223.91 6.2947e-15
62530.13 5.5111e-15
62836.34 4.5159e-15
63142.56 3.7068e-15
63448.77 3.0418e-15
63754.98 2.6706e-15
64061.21 2.3444e-15
64367.42 2.1155e-15
64673.63 1.9527e-15
64979.86 1.8338e-15
65286.06 1.7674e-15
65592.28 1.747e-15
65898.51 1.7644e-15
66204.71 1.7881e-15
66510.92 1.812e-15
66817.15 1.8066e-15
67123.36 1.8584e-15
67429.58 1.8188e-15
67735.79 1.8062e-15
68042.01 1.8073e-15
68348.23 1.8242e-15
68654.43 1.789e-15
68960.66 1.8951e-15
69266.87 1.9684e-15
69573.08 2.3732e-15
69879.3 2.7129e-15
70185.52 2.3456e-15
70491.73 2.2463e-15
70797.95 2.3964e-15
71104.16 2.4458e-15
71410.39 2.4721e-15
71716.59 2.5238e-15
72022.8 2.6553e-15
72329.03 2.7905e-15
72635.24 2.9114e-15
72941.45 3.0061e-15
73247.67 3.2326e-15
73553.89 3.4833e-15
73860.1 3.8054e-15
74166.31 4.1496e-15
74452.49 4.4055e-15
74472.54 4.5041e-15
74778.76 4.8622e-15
75066.13 5.4285e-15
75084.96 5.2711e-15
75679.79 6.3335e-15
76293.43 6.6022e-15
76907.09 6.1163e-15
77520.73 5.9406e-15
78134.4 5.7494e-15
78748.04 5.2658e-15
79361.69 4.5135e-15
79975.35 3.8437e-15
80589.0 3.3258e-15
81202.65 2.94e-15
81816.3 2.7101e-15
82429.95 2.6621e-15
83043.61 2.6646e-15
83657.26 2.6384e-15
84270.91 2.7269e-15
84884.56 2.955e-15
85498.22 3.1605e-15
86111.86 3.1399e-15
86725.51 2.7793e-15
87339.17 2.2662e-15
87952.81 1.7969e-15
88566.46 1.4497e-15
89180.12 1.2345e-15
89793.76 1.1322e-15
90407.42 1.0015e-15
91021.07 9.0883e-16
91634.73 8.6355e-16
92248.38 8.3488e-16
92862.03 8.0219e-16
93475.67 7.7891e-16
94089.32 7.5576e-16
94702.98 7.3954e-16
95316.63 7.3215e-16
95930.28 7.3952e-16
96543.94 7.9591e-16
97157.59 7.3264e-16
97771.24 6.6743e-16
98384.89 6.3412e-16
98998.5 6.2703e-16
99612.2 6.1524e-16
100225.81 6.1114e-16
100839.53 6.0672e-16
101453.14 5.9432e-16
102066.84 5.8234e-16
102680.46 5.769e-16
103294.07 6.0135e-16
103907.77 6.1604e-16
104521.38 6.6298e-16
105135.09 7.4002e-16
105748.7 8.0558e-16
106362.31 8.198e-16
106976.02 8.2874e-16
107589.63 8.3793e-16
108203.33 8.3565e-16
108816.94 8.9983e-16
109430.65 1.0836e-15
110044.27 1.3258e-15
110657.88 1.4598e-15
111271.58 1.995e-15
111885.19 3.1757e-15
112498.9 3.6312e-15
113112.51 3.1287e-15
113726.22 2.4532e-15
114339.83 1.9886e-15
114953.43 1.6352e-15
115567.15 1.416e-15
116180.76 1.2601e-15
116794.46 1.1566e-15
117408.07 1.0991e-15
118021.78 1.1331e-15
118635.39 1.183e-15
119249.0 1.2388e-15
119862.72 1.2753e-15
120476.32 1.23e-15
121090.02 1.1674e-15
121703.63 1.1357e-15
122317.26 1.2102e-15
122930.96 1.2972e-15
123544.57 1.2984e-15
124158.27 1.3234e-15
124771.89 1.4079e-15
125385.59 1.4907e-15
125999.21 1.5923e-15
126612.81 1.6681e-15
127226.52 1.843e-15
127840.13 2.4897e-15
128453.84 2.2188e-15
129067.45 1.2195e-15
129681.06 9.3467e-16
130294.76 8.7566e-16
130908.38 8.5454e-16
131522.09 8.3193e-16
132135.69 8.2538e-16
132749.4 8.0565e-16
133363.01 7.9702e-16
133976.63 7.8025e-16
134590.34 7.7396e-16
135203.94 7.7615e-16
135817.65 7.6851e-16
136431.26 7.3593e-16
137044.97 7.0631e-16
137658.57 6.7557e-16
138272.19 6.6648e-16
138885.9 6.6175e-16
139499.51 6.7015e-16
140113.21 6.6725e-16
140726.82 6.6873e-16
141340.53 6.7087e-16
141954.15 6.7656e-16
142567.75 6.6083e-16
143181.47 6.1552e-16
143709.49 5.8295e-16
144615.62 5.5648e-16
145521.85 4.9845e-16
146427.99 5.1453e-16
147334.12 5.1156e-16
148240.26 4.9942e-16
149146.49 4.9136e-16
150052.63 4.9838e-16
150958.76 4.986e-16
151864.99 5.0717e-16
152771.13 4.7401e-16
153677.25 4.9119e-16
154583.39 5.1971e-16
155489.63 6.2173e-16
156395.77 5.8036e-16
157301.89 5.3343e-16
158208.13 5.3219e-16
159114.27 5.4099e-16
160020.39 5.5108e-16
160926.62 5.4677e-16
161832.76 5.4969e-16
162738.89 6.147e-16
163645.03 7.59e-16
164551.28 8.738e-16
165457.39 8.0516e-16
166363.53 7.4542e-16
167269.67 7.697e-16
168175.9 7.586e-16
169082.04 7.8346e-16
169988.18 9.4406e-16
170894.42 9.4887e-16
171800.54 8.012e-16
172706.68 7.9893e-16
173612.91 7.957e-16
174519.04 7.4883e-16
175425.18 6.5908e-16
176331.3 6.0166e-16
177237.54 6.0692e-16
178143.68 5.8811e-16
179049.8 5.6781e-16
179956.04 5.3936e-16
180862.18 5.1916e-16
181768.3 5.0365e-16
182674.53 5.0976e-16
183580.67 5.136e-16
184486.82 5.1347e-16
185392.94 5.3352e-16
186299.17 7.0965e-16
187205.31 9.5143e-16
188111.44 6.658e-16
189017.69 5.5067e-16
189923.83 5.4628e-16
190829.94 5.3421e-16
191736.08 5.2216e-16
192642.33 5.2057e-16
193548.45 5.0255e-16
194454.59 5.2587e-16
195360.82 4.8903e-16
196266.95 4.7132e-16
197173.09 5.0138e-16
198079.23 5.098e-16
198985.46 4.958e-16
199891.59 5.0405e-16
200797.73 5.3596e-16
201703.96 5.2164e-16
203138.91 4.8829e-16
204873.29 5.6956e-16
206608.67 5.4072e-16
208345.06 5.1171e-16
210082.31 5.7015e-16
211820.45 5.6164e-16
213559.59 5.2869e-16
215299.63 5.6127e-16
217040.64 6.0129e-16
218782.64 5.6428e-16
220525.53 5.4407e-16
222269.42 5.7479e-16
224014.19 5.983e-16
225759.93 5.7737e-16
227506.68 5.5455e-16
229254.32 5.9081e-16
231002.95 6.0741e-16
232752.57 5.9905e-16
234503.07 5.453e-16
236254.67 5.9237e-16
238007.05 6.2102e-16
239760.5 6.2096e-16
241514.97 6.0579e-16
243270.31 6.0355e-16
245026.64 5.9767e-16
246783.96 6.1814e-16
248542.16 6.1473e-16
250301.47 6.1538e-16
252061.66 6.1402e-16
253822.94 6.1677e-16
255585.08 6.3278e-16
257348.26 6.4447e-16
259112.39 6.6147e-16
260877.51 6.4423e-16
262643.62 6.2932e-16
264410.75 6.3616e-16
266178.84 6.3737e-16
267947.92 6.3241e-16
269717.98 6.3973e-16
271489.03 6.3277e-16
273261.2 6.2548e-16
275034.22 6.3022e-16
276808.24 6.5329e-16
278583.34 6.604e-16
280359.46 6.5297e-16
282136.44 6.6424e-16
283914.5 6.4215e-16
285693.58 6.411e-16
287473.74 6.4558e-16
289254.86 6.646e-16
291036.91 6.2461e-16
292820.1 6.6383e-16
294604.21 6.6449e-16
296389.38 6.5906e-16
298175.56 6.5047e-16
299962.74 6.7609e-16
301750.99 6.6778e-16
303540.23 6.6882e-16
305330.46 6.7136e-16
307121.77 6.848e-16
308914.2 6.758e-16
310707.58 6.6489e-16
312501.98 6.9728e-16
314297.33 7.2074e-16
316093.89 6.9856e-16
317891.35 7.0019e-16
319689.95 7.2368e-16
321489.48 6.9727e-16
323290.18 7.3899e-16
325091.9 7.2433e-16
326894.54 7.4443e-16
328698.33 7.519e-16
330503.2 7.3209e-16
332309.12 8.3349e-16
334116.09 1.0131e-15
335924.07 9.2057e-16
337733.08 7.029e-16
339543.2 7.0927e-16
341354.49 7.1549e-16
343166.65 7.7025e-16
344980.01 8.0136e-16
