# col1 col2
# An Atlas of Galaxy Spectral Energy Distributions from the Ultraviolet to the Mid-Infrared
# Brown et al. (2014)
# http://dx.doi.org/10.5072/03/529D3551F0117
# 
# Column 1 : Restframe Wavelength (Angstrom)
# Column 2 : Flux per unit wavelength (ergs/s/cm^2/Angstrom)
# Column 3 : Observed wavelength (Angstrom)
# Column 4 : Source (0 = model, 1 = Optical Spectrum, 2 = Akari, 3 = Spitzer IRS)
# 
101.98 1.2617e-24
104.11 1.7296e-24
106.05 2.4152e-24
108.02 3.4194e-24
110.03 5.5584e-24
113.9 9.8389e-24
117.9 1.6216e-23
120.92 6.5005e-23
124.89 9.9299e-23
126.91 1.1938e-22
128.09 1.3242e-22
131.07 1.7019e-22
131.98 2.0842e-22
134.13 2.4375e-22
136.93 3.4829e-22
140.12 4.3446e-22
143.06 1.2273e-21
147.07 3.3109e-21
150.84 4.1778e-21
155.06 5.2838e-21
159.04 6.6672e-21
162.0 7.8514e-21
166.15 9.8163e-21
170.02 1.1966e-20
173.19 1.3898e-20
176.81 1.6709e-20
180.1 1.914e-20
182.18 2.0939e-20
186.0 2.4828e-20
191.21 3.0475e-20
193.87 3.451e-20
197.93 4.0174e-20
202.07 4.6768e-20
204.89 5.2113e-20
210.14 5.9422e-20
216.03 7.55e-20
220.05 8.6089e-20
223.11 9.3529e-20
227.25 1.064e-19
229.89 1.7098e-19
234.16 3.1042e-19
240.17 4.2653e-19
245.76 4.4972e-19
252.06 5.2474e-19
256.75 4.7967e-19
259.72 5.7803e-19
263.94 6.4261e-19
268.85 6.9015e-19
273.85 7.3781e-19
278.94 7.8695e-19
284.13 8.3936e-19
290.08 8.6287e-19
296.15 9.4177e-19
300.96 9.7937e-19
307.97 1.0714e-18
318.06 1.2077e-18
327.73 1.3242e-18
337.69 1.432e-18
347.95 1.538e-18
356.87 1.6442e-18
366.03 1.7577e-18
375.42 1.8533e-18
385.05 1.9008e-18
394.92 2.0651e-18
405.05 2.1875e-18
413.53 2.2696e-18
422.19 2.3332e-18
430.04 2.4041e-18
441.07 2.5232e-18
451.35 2.5998e-18
459.74 2.6665e-18
470.45 2.7539e-18
480.3 2.8572e-18
490.36 2.9037e-18
499.47 3.0265e-18
506.42 3.3647e-18
512.29 5.9834e-18
519.41 6.3233e-18
530.29 6.76e-18
540.15 6.7289e-18
550.19 9.119e-18
560.42 1.0888e-17
569.52 1.2501e-17
580.11 1.2301e-17
589.54 1.5415e-17
600.5 1.6442e-17
610.26 1.9676e-17
620.17 2.3012e-17
630.25 2.5583e-17
640.49 2.6421e-17
649.4 3.0899e-17
658.43 3.3725e-17
664.53 3.622e-17
675.32 3.7406e-17
684.72 3.7927e-17
694.24 4.9997e-17
705.52 4.8859e-17
715.34 5.9834e-17
725.29 6.3525e-17
735.38 6.7135e-17
745.61 7.7615e-17
754.24 8.4517e-17
764.74 9.14e-17
775.38 1.0138e-16
784.35 1.1142e-16
795.26 1.1802e-16
804.47 1.253e-16
815.66 1.3151e-16
825.11 1.4687e-16
834.66 1.2301e-16
844.33 1.592e-16
854.11 1.6632e-16
865.99 1.8153e-16
874.0 1.9767e-16
884.12 2.1825e-16
894.36 2.3332e-16
904.71 2.3656e-16
915.19 3.7579e-16
925.79 2.7922e-15
934.35 6.3088e-15
945.17 1.216e-14
953.92 1.6709e-14
964.97 1.8834e-14
973.89 3.0126e-15
985.17 1.5344e-14
994.29 1.6404e-14
1005.8 2.3875e-14
1015.11 2.3656e-14
1024.5 1.1142e-14
1033.98 1.7537e-14
1045.95 3.1619e-14
1055.63 3.0405e-14
1065.4 2.4263e-14
1075.26 2.8903e-14
1085.2 2.3386e-14
1095.25 3.0899e-14
1105.38 2.8704e-14
1115.61 2.7666e-14
1125.93 2.4041e-14
1133.74 3.1257e-14
1144.23 2.8638e-14
1154.81 3.0265e-14
1165.5 3.0828e-14
1176.28 1.9904e-14
1184.44 3.0686e-14
1195.4 2.4375e-14
1203.68 1.7137e-14
1214.82 1.2559e-14
1226.06 2.4207e-14
1234.56 3.243e-14
1245.98 3.4037e-14
1254.62 3.258e-14
1266.23 3.0405e-14
1275.0 3.5395e-14
1283.84 3.6137e-14
1295.72 2.8507e-14
1304.7 2.9781e-14
1313.75 3.5971e-14
1325.9 3.388e-14
1335.09 3.097e-14
1344.35 3.5233e-14
1353.67 3.451e-14
1366.19 3.1257e-14
1375.66 3.1838e-14
1385.2 3.2059e-14
1394.8 2.5701e-14
1404.47 2.7349e-14
1414.2 2.9781e-14
1424.01 3.0126e-14
1433.88 3.0828e-14
1440.49 3.1985e-14
1447.14 3.1911e-14
1453.82 3.1113e-14
1463.9 2.8837e-14
1474.05 2.9373e-14
1484.27 2.9508e-14
1494.55 2.9576e-14
1504.91 2.7476e-14
1511.86 2.4375e-14
1515.35 2.576e-14
1525.85 2.6179e-14
1536.43 2.2592e-14
1543.52 2.3225e-14
1554.22 2.254e-14
1564.99 2.3985e-14
1575.84 2.5642e-14
1586.76 2.6421e-14
1594.09 2.6665e-14
1605.14 2.685e-14
1616.26 2.685e-14
1623.72 2.5998e-14
1634.98 2.7794e-14
1646.31 2.7986e-14
1653.91 2.6912e-14
1665.37 2.8638e-14
1673.06 2.6912e-14
1676.92 2.9104e-14
1684.66 2.9508e-14
1696.34 2.7922e-14
1704.17 2.7099e-14
1715.98 2.5642e-14
1723.9 2.5583e-14
1735.85 2.7099e-14
1743.86 2.6421e-14
1755.95 2.7602e-14
1764.05 2.6239e-14
1776.28 2.5879e-14
1784.48 2.6543e-14
1796.85 2.7858e-14
1805.14 2.8116e-14
1813.48 2.529e-14
1826.05 2.6482e-14
1834.47 2.5524e-14
1842.94 2.3439e-14
1855.72 2.3332e-14
1864.28 2.4041e-14
1872.89 2.6058e-14
1885.87 2.3439e-14
1894.58 2.2027e-14
1903.32 2.4152e-14
1916.51 2.2696e-14
1925.36 2.2077e-14
1934.25 2.3386e-14
1943.17 2.4152e-14
1956.64 2.2128e-14
1965.67 2.4375e-14
1974.75 2.5348e-14
1983.86 2.3711e-14
1993.02 2.3225e-14
2006.84 2.4207e-14
2016.1 2.3656e-14
2025.4 2.4886e-14
2034.75 2.2959e-14
2044.15 2.3711e-14
2053.58 2.2853e-14
2063.06 2.3118e-14
2072.58 2.4714e-14
2077.36 2.2592e-14
2086.95 2.382e-14
2096.58 2.254e-14
2106.26 2.3225e-14
2115.98 2.3439e-14
2125.75 2.3765e-14
2135.56 2.2959e-14
2145.42 2.2488e-14
2155.32 2.3493e-14
2165.27 2.3225e-14
2175.26 2.3065e-14
2185.3 2.2436e-14
2195.39 2.3225e-14
2205.52 2.2906e-14
2215.7 2.2282e-14
2225.93 2.1674e-14
2236.21 2.2282e-14
2246.53 2.2025e-14
2256.9 2.1315e-14
2267.31 2.175e-14
2272.54 2.1895e-14
2283.03 2.2136e-14
2293.57 2.0935e-14
2304.16 2.1264e-14
2314.79 2.0531e-14
2325.48 1.6911e-14
2336.21 1.9495e-14
2346.99 1.9395e-14
2352.4 1.9979e-14
2363.26 1.9245e-14
2374.17 1.9323e-14
2385.13 1.8743e-14
2396.14 1.9301e-14
2407.2 1.8678e-14
2412.75 1.8889e-14
2423.88 1.9274e-14
2435.07 1.8609e-14
2446.31 1.9163e-14
2457.6 1.9064e-14
2463.27 1.884e-14
2474.64 1.8443e-14
2486.06 1.8646e-14
2497.54 1.7152e-14
2503.29 1.8715e-14
2514.85 1.7536e-14
2520.65 1.8147e-14
2526.46 1.7647e-14
2532.28 1.7642e-14
2543.97 1.7269e-14
2555.71 1.7865e-14
2567.51 1.765e-14
2573.43 1.8097e-14
2585.31 1.7962e-14
2597.24 1.7827e-14
2603.23 1.7456e-14
2615.24 1.7285e-14
2627.31 1.7474e-14
2633.37 1.763e-14
2645.52 1.8196e-14
2657.74 1.8353e-14
2663.86 1.7361e-14
2676.16 1.7754e-14
2682.33 1.7707e-14
2694.71 1.7095e-14
2707.15 1.7163e-14
2713.39 1.6805e-14
2725.91 1.6717e-14
2732.2 1.7062e-14
2744.81 1.5949e-14
2757.48 1.6049e-14
2763.83 1.6267e-14
2776.59 1.6635e-14
2782.99 1.6213e-14
2795.84 1.4777e-14
2802.28 1.5291e-14
2815.22 1.6298e-14
2828.21 1.6437e-14
2834.73 1.5801e-14
2847.81 1.5718e-14
2854.38 1.5461e-14
2867.55 1.6104e-14
2874.17 1.6025e-14
2887.43 1.594e-14
2894.09 1.5861e-14
2907.45 1.6256e-14
2927.6 1.5906e-14
2947.89 1.5563e-14
2968.33 1.5582e-14
2988.9 1.5458e-14
3009.62 1.5299e-14
3030.48 1.5318e-14
3051.49 1.5195e-14
3072.64 1.5108e-14
3086.82 1.4924e-14
3108.22 1.4907e-14
3129.77 1.4652e-14
3151.46 1.4568e-14
3173.31 1.4451e-14
3187.95 1.3981e-14
3210.05 1.4126e-14
3232.3 1.3725e-14
3247.22 1.4033e-14
3269.73 1.4179e-14
3292.39 1.3999e-14
3307.59 1.386e-14
3322.86 1.4368e-14
3330.52 1.4428e-14
3338.19 1.3837e-14
3345.89 1.4121e-14
3353.6 1.3985e-14
3361.33 1.3788e-14
3369.08 1.3562e-14
3376.85 1.3156e-14
3384.63 1.3581e-14
3392.44 1.3988e-14
3400.26 1.4374e-14
3408.1 1.3533e-14
3415.95 1.3621e-14
3423.83 1.4159e-14
3431.72 1.4088e-14
3439.63 1.4049e-14
3447.56 1.3257e-14
3455.51 1.3313e-14
3463.47 1.2885e-14
3471.46 1.3363e-14
3479.46 1.2904e-14
3487.48 1.3107e-14
3495.52 1.3284e-14
3503.58 1.3248e-14
3511.65 1.309e-14
3519.75 1.3145e-14
3527.86 1.284e-14
3536.0 1.3285e-14
3544.15 1.3464e-14
3552.32 1.3583e-14
3560.51 1.3452e-14
3568.71 1.2841e-14
3576.94 1.2428e-14
3585.19 1.2056e-14
3593.45 1.2417e-14
3601.73 1.3056e-14
3610.04 1.2665e-14
3618.36 1.2895e-14
3626.7 1.3373e-14
3635.06 1.2883e-14
3643.44 1.3484e-14
3651.84 1.2753e-14
3659.18 1.1833e-14
3661.86 9.716e-15
3664.54 1.1418e-14
3667.23 1.3695e-14
3669.91 9.6765e-15
3672.6 1.1548e-14
3675.28 1.1679e-14
3677.97 1.2608e-14
3680.65 1.3546e-14
3683.33 1.286e-14
3686.02 1.1953e-14
3688.7 1.1984e-14
3691.39 1.0709e-14
3694.07 1.1403e-14
3696.76 1.3434e-14
3699.44 1.3868e-14
3702.13 1.1302e-14
3704.81 1.241e-14
3707.49 9.8845e-15
3710.18 1.1656e-14
3712.86 1.1819e-14
3715.55 1.4201e-14
3718.23 1.2228e-14
3720.92 1.6578e-14
3723.6 2.1986e-14
3726.28 3.6392e-14
3728.97 5.165e-14
3731.65 5.2071e-14
3734.34 4.1266e-14
3737.02 2.2882e-14
3739.71 1.8523e-14
3742.39 1.5308e-14
3745.08 1.2556e-14
3747.76 1.6777e-14
3750.44 1.3846e-14
3753.13 1.2241e-14
3755.81 1.1406e-14
3758.5 1.6107e-14
3761.18 1.6613e-14
3763.87 1.4606e-14
3766.55 1.4834e-14
3769.23 1.2057e-14
3771.92 1.4187e-14
3774.6 1.4456e-14
3777.29 1.2491e-14
3779.97 1.3463e-14
3782.66 1.4654e-14
3785.34 1.558e-14
3788.03 1.4034e-14
3790.71 1.3834e-14
3793.39 1.4693e-14
3796.08 1.2913e-14
3798.76 1.4259e-14
3801.45 1.432e-14
3804.13 1.5297e-14
3806.82 1.5138e-14
3809.5 1.4723e-14
3812.19 1.6896e-14
3814.87 1.6583e-14
3817.55 1.7112e-14
3820.24 1.8869e-14
3822.92 1.4603e-14
3825.61 1.5599e-14
3828.29 1.4232e-14
3830.98 1.5638e-14
3833.66 1.3508e-14
3836.34 1.288e-14
3839.03 1.2153e-14
3841.71 1.2081e-14
3844.4 1.0045e-14
3847.08 1.5717e-14
3849.77 1.6343e-14
3852.45 1.6295e-14
3855.14 1.8002e-14
3857.82 1.7472e-14
3860.5 1.5771e-14
3863.19 1.6605e-14
3865.87 1.8123e-14
3868.56 2.0181e-14
3871.24 1.9003e-14
3873.93 1.9777e-14
3876.61 1.7761e-14
3879.29 1.5699e-14
3881.98 1.4876e-14
3884.66 1.7626e-14
3887.35 1.6523e-14
3890.03 1.3003e-14
3892.72 1.4382e-14
3895.4 1.5773e-14
3898.09 1.532e-14
3900.77 1.5312e-14
3903.45 1.3962e-14
3906.14 1.6093e-14
3908.82 1.9056e-14
3911.51 1.6866e-14
3914.19 1.7891e-14
3916.88 1.8507e-14
3919.56 1.692e-14
3922.24 1.7443e-14
3924.93 1.7804e-14
3927.61 1.5757e-14
3930.3 1.5729e-14
3932.98 1.7287e-14
3935.67 1.6017e-14
3938.35 1.4567e-14
3941.04 1.6246e-14
3943.72 1.7895e-14
3946.4 1.8867e-14
3949.09 1.6423e-14
3951.77 1.6716e-14
3954.46 1.9066e-14
3957.14 1.7033e-14
3959.83 1.5817e-14
3962.51 1.6896e-14
3965.19 1.4481e-14
3967.88 1.6183e-14
3970.56 1.5527e-14
3973.25 1.4938e-14
3975.93 1.4716e-14
3978.62 1.2593e-14
3981.3 1.4815e-14
3983.99 1.5622e-14
3986.67 1.6182e-14
3989.35 1.7742e-14
3992.04 1.9372e-14
3994.72 1.92e-14
3997.41 1.8508e-14
4000.09 1.7682e-14
4002.78 1.9804e-14
4005.46 1.8718e-14
4008.15 1.7676e-14
4010.83 1.8627e-14
4013.51 2.1042e-14
4016.2 1.978e-14
4018.88 2.0546e-14
4021.57 1.9202e-14
4024.25 1.8214e-14
4026.94 1.809e-14
4029.62 1.892e-14
4032.3 1.9038e-14
4034.99 1.8396e-14
4037.67 1.6749e-14
4040.36 1.8025e-14
4043.04 1.838e-14
4045.73 1.7791e-14
4048.41 1.7173e-14
4051.1 1.76e-14
4053.78 1.9057e-14
4056.46 2.0303e-14
4059.15 1.8293e-14
4061.83 1.8686e-14
4064.52 1.9196e-14
4067.2 1.901e-14
4069.89 1.8652e-14
4072.57 1.8514e-14
4075.25 1.8875e-14
4077.94 1.8787e-14
4080.62 1.9651e-14
4083.31 1.9313e-14
4085.99 1.8796e-14
4088.68 1.9779e-14
4091.36 1.887e-14
4094.05 1.7895e-14
4096.73 1.7872e-14
4099.41 1.937e-14
4102.1 1.914e-14
4104.78 1.7606e-14
4107.47 1.7768e-14
4110.15 1.801e-14
4112.84 1.9374e-14
4115.52 1.797e-14
4118.2 1.87e-14
4120.89 1.8321e-14
4123.57 1.8517e-14
4126.26 2.045e-14
4128.94 1.8384e-14
4131.63 1.8044e-14
4134.31 1.8204e-14
4137.0 1.8887e-14
4139.68 1.9663e-14
4142.36 1.9872e-14
4145.05 1.8885e-14
4147.73 1.8909e-14
4150.42 2.0759e-14
4153.1 1.9765e-14
4155.79 2.0062e-14
4158.47 1.9687e-14
4161.15 2.0132e-14
4163.84 2.0797e-14
4166.52 1.9916e-14
4169.21 1.9033e-14
4171.89 1.7925e-14
4174.58 1.8826e-14
4177.26 1.8515e-14
4179.95 1.7861e-14
4182.63 2.0593e-14
4185.31 1.8616e-14
4188.0 1.8096e-14
4190.68 1.8461e-14
4193.37 1.8725e-14
4196.05 1.849e-14
4198.74 1.8083e-14
4201.42 1.899e-14
4204.1 1.7942e-14
4206.79 1.9347e-14
4209.47 1.7881e-14
4212.16 1.8618e-14
4214.84 2.0682e-14
4217.53 1.938e-14
4220.21 1.7689e-14
4222.9 1.9739e-14
4225.58 1.7759e-14
4228.26 1.8219e-14
4230.95 1.699e-14
4233.63 1.8072e-14
4236.32 1.7867e-14
4239.0 1.7761e-14
4241.69 1.7297e-14
4244.37 1.8356e-14
4247.06 1.7931e-14
4249.74 1.6431e-14
4252.42 1.7569e-14
4255.11 1.84e-14
4257.79 1.8427e-14
4260.48 1.7266e-14
4263.16 1.81e-14
4265.85 1.7497e-14
4268.53 1.8141e-14
4271.21 1.9412e-14
4273.9 1.7534e-14
4276.58 1.802e-14
4279.27 1.7325e-14
4281.95 1.7053e-14
4284.64 1.8858e-14
4287.32 1.782e-14
4290.01 1.7554e-14
4292.69 1.7626e-14
4295.37 1.5486e-14
4298.06 1.9001e-14
4300.74 1.7407e-14
4303.43 1.6471e-14
4306.11 1.715e-14
4308.8 1.7348e-14
4311.48 1.7143e-14
4314.16 1.6467e-14
4316.85 1.6816e-14
4319.53 1.7361e-14
4322.22 1.9914e-14
4324.9 1.6364e-14
4327.59 1.7845e-14
4330.27 1.6403e-14
4332.96 1.7888e-14
4335.64 1.5196e-14
4338.32 1.8962e-14
4341.01 2.1282e-14
4343.69 2.3223e-14
4346.38 2.1037e-14
4349.06 2.0114e-14
4351.75 1.6886e-14
4354.43 1.6729e-14
4357.11 1.7902e-14
4359.8 1.783e-14
4362.48 1.7954e-14
4365.17 1.9296e-14
4367.85 1.8367e-14
4370.54 1.9639e-14
4373.22 1.8161e-14
4375.91 1.875e-14
4378.59 1.897e-14
4381.27 1.9772e-14
4383.96 1.645e-14
4386.64 1.771e-14
4389.33 1.7558e-14
4392.01 1.8279e-14
4394.7 1.8412e-14
4397.38 1.5698e-14
4400.06 1.5558e-14
4402.75 1.7106e-14
4405.43 1.7628e-14
4408.12 1.8501e-14
4410.8 1.8983e-14
4413.49 1.7798e-14
4416.17 1.7193e-14
4418.86 1.897e-14
4421.54 1.8292e-14
4424.22 1.8069e-14
4426.91 1.8309e-14
4429.59 1.849e-14
4432.28 1.8306e-14
4434.96 1.8111e-14
4437.65 1.8547e-14
4440.33 2.0281e-14
4443.02 2.002e-14
4445.7 2.026e-14
4448.38 2.0137e-14
4451.07 1.9736e-14
4453.75 1.865e-14
4456.44 1.8535e-14
4459.12 1.7974e-14
4461.81 1.7426e-14
4464.49 1.831e-14
4467.17 1.8199e-14
4469.86 1.9902e-14
4472.54 1.9372e-14
4475.23 1.9561e-14
4477.91 1.9757e-14
4480.6 2.0149e-14
4483.28 1.8908e-14
4485.97 1.9231e-14
4488.65 1.8137e-14
4491.33 1.8065e-14
4494.02 1.8899e-14
4496.7 1.9073e-14
4499.39 1.8644e-14
4502.07 1.9437e-14
4504.76 1.9419e-14
4507.44 1.9536e-14
4510.12 2.0148e-14
4512.81 2.0263e-14
4515.49 2.0153e-14
4518.18 2.072e-14
4520.86 1.9975e-14
4523.55 1.9683e-14
4526.23 1.873e-14
4528.92 1.9111e-14
4531.6 1.8894e-14
4534.28 1.861e-14
4536.97 1.9028e-14
4539.65 1.8365e-14
4542.34 1.8586e-14
4545.02 1.8225e-14
4547.71 1.8328e-14
4550.39 1.8708e-14
4553.07 1.836e-14
4555.76 1.8272e-14
4558.44 1.8547e-14
4561.13 1.954e-14
4563.81 1.9701e-14
4566.5 1.923e-14
4569.18 1.9168e-14
4571.87 1.8929e-14
4574.55 2.0195e-14
4577.23 2.0329e-14
4579.92 1.8913e-14
4582.6 1.8771e-14
4585.29 2.0421e-14
4587.97 2.0082e-14
4590.66 1.917e-14
4593.34 1.9375e-14
4596.02 1.9195e-14
4598.71 1.8586e-14
4601.39 1.9718e-14
4604.08 1.9398e-14
4606.76 2.0174e-14
4609.45 1.9503e-14
4612.13 1.8471e-14
4614.82 1.9e-14
4617.5 2.0819e-14
4620.18 2.0321e-14
4622.87 2.0167e-14
4625.55 1.9476e-14
4628.24 1.8787e-14
4630.92 2.1073e-14
4633.61 2.1374e-14
4636.29 1.9613e-14
4638.98 1.8245e-14
4641.66 1.8061e-14
4644.34 1.7645e-14
4647.03 1.9174e-14
4649.71 2.0392e-14
4652.4 2.0109e-14
4655.08 2.0388e-14
4657.77 2.0146e-14
4660.45 2.0142e-14
4663.13 1.9954e-14
4665.82 1.9352e-14
4668.5 1.9224e-14
4671.19 1.8856e-14
4673.87 1.8979e-14
4676.56 1.9782e-14
4679.24 1.9687e-14
4681.93 1.9404e-14
4684.61 1.9716e-14
4687.29 1.971e-14
4689.98 1.9467e-14
4692.66 1.976e-14
4695.35 1.964e-14
4698.03 1.9986e-14
4700.72 1.9391e-14
4703.4 1.8257e-14
4706.08 1.9592e-14
4708.77 2.0213e-14
4711.45 1.9134e-14
4714.14 1.8235e-14
4716.82 1.9198e-14
4719.51 1.944e-14
4722.19 1.915e-14
4724.88 1.8959e-14
4727.56 1.8756e-14
4730.24 1.8757e-14
4732.93 1.8998e-14
4735.61 1.8021e-14
4738.3 1.8643e-14
4740.98 1.8731e-14
4743.67 1.8389e-14
4746.35 1.8793e-14
4749.03 1.8909e-14
4751.72 1.7506e-14
4754.4 1.8069e-14
4757.09 1.9203e-14
4759.77 1.9052e-14
4762.46 1.8003e-14
4765.14 1.9005e-14
4767.83 1.8842e-14
4770.51 1.7659e-14
4773.19 1.7969e-14
4775.88 1.8236e-14
4778.56 1.8168e-14
4781.25 1.8351e-14
4783.93 1.8848e-14
4786.62 1.925e-14
4789.3 1.8558e-14
4791.98 1.8864e-14
4794.67 1.864e-14
4797.35 1.7529e-14
4800.04 1.9102e-14
4802.72 1.9357e-14
4805.41 1.7124e-14
4808.09 1.8313e-14
4810.78 1.8423e-14
4813.46 1.9515e-14
4816.14 1.778e-14
4818.83 1.8636e-14
4821.51 1.8591e-14
4824.2 1.8485e-14
4826.88 1.7266e-14
4829.57 1.794e-14
4832.25 1.8442e-14
4834.93 1.8422e-14
4837.62 1.8744e-14
4840.3 1.7382e-14
4842.99 1.787e-14
4845.67 1.6839e-14
4848.36 1.7155e-14
4851.04 1.7315e-14
4853.73 1.7768e-14
4856.41 1.8623e-14
4859.09 2.4584e-14
4861.78 3.1226e-14
4864.46 3.3849e-14
4867.15 3.1106e-14
4869.83 2.4613e-14
4872.52 1.9662e-14
4875.2 1.8612e-14
4877.89 1.7643e-14
4880.57 1.6335e-14
4883.25 1.8237e-14
4885.94 1.7879e-14
4888.62 1.7787e-14
4891.31 1.7269e-14
4893.99 1.821e-14
4896.68 1.9041e-14
4899.36 1.9265e-14
4902.04 1.8589e-14
4904.73 1.6674e-14
4907.41 1.7002e-14
4910.1 1.7246e-14
4912.78 1.7329e-14
4915.47 1.7829e-14
4918.15 1.8038e-14
4920.84 1.7101e-14
4923.52 1.6836e-14
4926.2 1.6856e-14
4928.89 1.7593e-14
4931.57 1.7604e-14
4934.26 1.7949e-14
4936.94 1.8313e-14
4939.63 1.9234e-14
4942.31 1.7417e-14
4944.99 1.8009e-14
4947.68 1.7784e-14
4950.36 1.8059e-14
4953.05 1.9078e-14
4955.73 1.9826e-14
4958.42 2.3021e-14
4961.1 2.4055e-14
4963.79 2.4376e-14
4966.47 2.1373e-14
4969.15 1.9779e-14
4971.84 1.886e-14
4974.52 1.8411e-14
4977.21 1.8577e-14
4979.89 1.8658e-14
4982.58 1.791e-14
4985.26 1.7058e-14
4987.94 1.7562e-14
4990.63 1.9467e-14
4993.31 1.9698e-14
4996.0 1.8817e-14
4998.68 1.9174e-14
5001.37 1.9821e-14
5004.05 2.4043e-14
5006.74 3.0338e-14
5009.42 3.6978e-14
5012.1 3.5495e-14
5014.79 3.0365e-14
5017.47 2.2636e-14
5020.16 2.0837e-14
5022.84 1.8565e-14
5025.53 1.8147e-14
5028.21 1.7946e-14
5030.89 1.8177e-14
5033.58 1.7569e-14
5036.26 1.6588e-14
5038.95 1.8045e-14
5041.63 1.7886e-14
5044.32 1.694e-14
5047.0 1.7458e-14
5049.69 1.9009e-14
5052.37 1.7695e-14
5055.05 1.7504e-14
5057.74 1.8431e-14
5060.42 1.8022e-14
5063.11 1.893e-14
5065.79 1.8311e-14
5068.48 1.8296e-14
5071.16 1.6426e-14
5073.85 1.7763e-14
5076.53 1.8939e-14
5079.21 1.7559e-14
5081.9 1.8522e-14
5084.58 1.8026e-14
5087.27 1.7844e-14
5089.95 1.7806e-14
5092.64 1.8127e-14
5095.32 1.7902e-14
5098.0 1.7872e-14
5100.69 1.7166e-14
5103.37 1.6567e-14
5106.06 1.7274e-14
5108.74 1.827e-14
5111.43 1.7737e-14
5114.11 1.7106e-14
5116.8 1.8185e-14
5119.48 1.8825e-14
5122.16 1.869e-14
5124.85 1.6066e-14
5127.53 1.7518e-14
5130.22 1.6578e-14
5132.9 1.795e-14
5135.59 1.7995e-14
5138.27 1.7403e-14
5140.95 1.6848e-14
5143.64 1.7664e-14
5146.32 1.8144e-14
5149.01 1.8126e-14
5151.69 1.8097e-14
5154.38 1.5921e-14
5157.06 1.672e-14
5159.75 1.723e-14
5162.43 1.706e-14
5165.11 1.6499e-14
5167.8 1.5815e-14
5170.48 1.6192e-14
5173.17 1.5782e-14
5175.85 1.4854e-14
5178.54 1.697e-14
5181.22 1.6478e-14
5183.9 1.6302e-14
5186.59 1.4669e-14
5189.27 1.5284e-14
5191.96 1.6294e-14
5194.64 1.7513e-14
5197.33 1.7296e-14
5200.01 1.7395e-14
5202.7 1.8655e-14
5205.38 1.8692e-14
5208.06 1.8964e-14
5210.75 1.7839e-14
5213.43 1.8172e-14
5216.12 1.9122e-14
5218.8 1.8894e-14
5221.49 1.7453e-14
5224.17 1.8465e-14
5226.85 1.6393e-14
5229.54 1.6561e-14
5232.22 1.8399e-14
5234.91 1.6815e-14
5237.59 1.7043e-14
5240.28 1.7645e-14
5242.96 1.7158e-14
5245.65 1.7054e-14
5248.33 1.6932e-14
5251.01 1.8274e-14
5253.7 1.7409e-14
5256.38 1.7987e-14
5259.07 1.7183e-14
5261.75 1.829e-14
5264.44 1.7162e-14
5267.12 1.6822e-14
5269.81 1.6371e-14
5272.49 1.564e-14
5275.17 1.7802e-14
5277.86 1.6672e-14
5280.54 1.5403e-14
5283.23 1.6124e-14
5285.91 1.6498e-14
5288.6 1.7777e-14
5291.28 1.6937e-14
5293.96 1.7401e-14
5296.65 1.8286e-14
5299.33 1.72e-14
5302.02 1.7102e-14
5304.7 1.6888e-14
5307.39 1.8209e-14
5310.07 1.7886e-14
5312.76 1.6841e-14
5315.44 1.7976e-14
5318.12 1.7537e-14
5320.81 1.6811e-14
5323.49 1.702e-14
5326.18 1.8006e-14
5328.86 1.7701e-14
5331.55 1.7036e-14
5334.23 1.6843e-14
5336.91 1.6743e-14
5339.6 1.755e-14
5342.28 1.7242e-14
5344.97 1.8324e-14
5347.65 1.7588e-14
5350.34 1.7118e-14
5353.02 1.7493e-14
5355.71 1.7054e-14
5358.39 1.727e-14
5361.07 1.7327e-14
5363.76 1.8283e-14
5366.44 1.7208e-14
5369.13 1.7997e-14
5371.81 1.7443e-14
5374.5 1.6413e-14
5377.18 1.7316e-14
5379.86 1.7521e-14
5382.55 1.7278e-14
5385.23 1.7848e-14
5387.92 1.7647e-14
5390.6 1.7452e-14
5393.29 1.757e-14
5395.97 1.6788e-14
5398.66 1.7438e-14
5401.34 1.69e-14
5404.02 1.6466e-14
5406.71 1.7358e-14
5409.39 1.7569e-14
5412.08 1.6692e-14
5414.76 1.5819e-14
5417.45 1.8325e-14
5420.13 1.6374e-14
5422.81 1.7257e-14
5425.5 1.6706e-14
5428.18 1.6835e-14
5430.87 1.7151e-14
5433.55 1.6815e-14
5436.24 1.618e-14
5438.92 1.6399e-14
5441.61 1.629e-14
5444.29 1.7865e-14
5446.97 1.7567e-14
5449.66 1.7519e-14
5452.34 1.7886e-14
5455.03 1.7154e-14
5457.71 1.5724e-14
5460.4 1.7288e-14
5463.08 1.7354e-14
5465.76 1.8362e-14
5468.45 1.6735e-14
5471.13 1.8103e-14
5473.82 1.5812e-14
5476.5 1.6144e-14
5479.19 1.6345e-14
5481.87 1.5834e-14
5484.56 1.6306e-14
5487.24 1.7002e-14
5489.92 1.7469e-14
5492.61 1.7975e-14
5495.29 1.6805e-14
5497.98 1.6687e-14
5500.66 1.7866e-14
5503.35 1.6079e-14
5506.03 1.6409e-14
5508.72 1.6408e-14
5511.4 1.6741e-14
5514.08 1.5618e-14
5516.77 1.5754e-14
5519.45 1.5657e-14
5522.14 1.653e-14
5524.82 1.7121e-14
5527.51 1.6726e-14
5530.19 1.6902e-14
5532.87 1.6818e-14
5535.56 1.6505e-14
5538.24 1.7146e-14
5540.93 1.7517e-14
5543.61 1.7479e-14
5546.3 1.733e-14
5548.98 1.7053e-14
5551.67 1.6329e-14
5554.35 1.7033e-14
5557.03 1.7181e-14
5559.72 1.7097e-14
5562.4 1.5879e-14
5565.09 1.6505e-14
5567.77 1.5991e-14
5570.46 1.6243e-14
5573.14 1.645e-14
5575.82 1.6896e-14
5578.51 1.7493e-14
5581.19 1.571e-14
5583.88 1.5695e-14
5586.56 1.7462e-14
5589.25 1.7005e-14
5591.93 1.54e-14
5594.62 1.6129e-14
5597.3 1.6159e-14
5599.98 1.831e-14
5602.67 1.8586e-14
5605.35 1.7522e-14
5608.04 1.7511e-14
5610.72 1.6921e-14
5613.41 1.7006e-14
5616.09 1.7398e-14
5618.77 1.6932e-14
5621.46 1.6762e-14
5624.14 1.6246e-14
5626.83 1.6589e-14
5629.51 1.7712e-14
5632.2 1.7414e-14
5634.88 1.6608e-14
5637.57 1.7128e-14
5640.25 1.8361e-14
5642.93 1.8201e-14
5645.62 1.6765e-14
5648.3 1.6841e-14
5650.99 1.6921e-14
5653.67 1.6723e-14
5656.36 1.7236e-14
5659.04 1.5782e-14
5661.72 1.6298e-14
5664.41 1.6475e-14
5667.09 1.5931e-14
5669.78 1.7449e-14
5672.46 1.6542e-14
5675.15 1.6053e-14
5677.83 1.6153e-14
5680.52 1.6033e-14
5683.2 1.6225e-14
5685.88 1.6199e-14
5688.57 1.6224e-14
5691.25 1.715e-14
5693.94 1.6022e-14
5696.62 1.6307e-14
5699.31 1.604e-14
5701.99 1.6735e-14
5704.68 1.6536e-14
5707.36 1.7021e-14
5710.04 1.6974e-14
5712.73 1.5493e-14
5715.41 1.6347e-14
5718.1 1.7444e-14
5720.78 1.7535e-14
5723.47 1.7157e-14
5726.15 1.6244e-14
5728.83 1.7176e-14
5731.52 1.693e-14
5734.2 1.6845e-14
5736.89 1.784e-14
5739.57 1.7963e-14
5742.26 1.7109e-14
5744.94 1.6987e-14
5747.63 1.7007e-14
5750.31 1.7965e-14
5752.99 1.7596e-14
5755.68 1.6128e-14
5758.36 1.769e-14
5761.05 1.675e-14
5763.73 1.6314e-14
5766.42 1.7034e-14
5769.1 1.7147e-14
5771.78 1.6607e-14
5774.47 1.7055e-14
5777.15 1.5767e-14
5779.84 1.6093e-14
5782.52 1.7718e-14
5785.21 1.5415e-14
5787.89 1.6232e-14
5790.58 1.5941e-14
5793.26 1.6805e-14
5795.94 1.6247e-14
5798.63 1.5485e-14
5801.31 1.5528e-14
5804.0 1.6331e-14
5806.68 1.5176e-14
5809.37 1.7374e-14
5812.05 1.7962e-14
5814.73 1.6675e-14
5817.42 1.6979e-14
5820.1 1.5915e-14
5822.79 1.684e-14
5825.47 1.705e-14
5828.16 1.6302e-14
5830.84 1.643e-14
5833.53 1.6651e-14
5836.21 1.7341e-14
5838.89 1.63e-14
5841.58 1.8335e-14
5844.26 1.6898e-14
5846.95 1.6734e-14
5849.63 1.6577e-14
5852.32 1.5303e-14
5855.0 1.7118e-14
5857.68 1.6569e-14
5860.37 1.4336e-14
5863.05 1.5798e-14
5865.74 1.5249e-14
5868.42 1.652e-14
5871.11 1.7445e-14
5873.79 1.7777e-14
5876.48 1.8421e-14
5879.16 1.8849e-14
5881.84 1.7735e-14
5884.53 1.5515e-14
5887.21 1.6249e-14
5889.9 1.5029e-14
5892.58 1.5151e-14
5895.27 1.4457e-14
5897.95 1.562e-14
5900.63 1.503e-14
5903.32 1.4883e-14
5906.0 1.4973e-14
5908.69 1.6258e-14
5911.37 1.563e-14
5914.06 1.5864e-14
5916.74 1.5885e-14
5919.43 1.6018e-14
5922.11 1.6058e-14
5924.79 1.691e-14
5927.48 1.5907e-14
5930.16 1.5907e-14
5932.85 1.6062e-14
5935.53 1.5595e-14
5938.22 1.6205e-14
5940.9 1.6315e-14
5943.59 1.5264e-14
5946.27 1.5815e-14
5948.95 1.6037e-14
5951.64 1.4948e-14
5954.32 1.5414e-14
5957.01 1.6316e-14
5959.69 1.6583e-14
5962.38 1.6203e-14
5965.06 1.6352e-14
5967.74 1.5837e-14
5970.43 1.5754e-14
5973.11 1.626e-14
5975.8 1.5625e-14
5978.48 1.6084e-14
5981.17 1.6147e-14
5983.85 1.5985e-14
5986.54 1.4966e-14
5989.22 1.4475e-14
5991.9 1.4804e-14
5994.59 1.6404e-14
5997.27 1.5728e-14
5999.96 1.567e-14
6002.64 1.6147e-14
6005.33 1.6496e-14
6008.01 1.6209e-14
6010.69 1.6423e-14
6013.38 1.6714e-14
6016.06 1.56e-14
6018.75 1.4688e-14
6021.43 1.5764e-14
6024.12 1.4868e-14
6026.8 1.7275e-14
6029.49 1.6287e-14
6032.17 1.6995e-14
6034.85 1.5931e-14
6037.54 1.5676e-14
6040.22 1.5497e-14
6042.91 1.548e-14
6045.59 1.5384e-14
6048.28 1.5432e-14
6050.96 1.6452e-14
6053.64 1.7215e-14
6056.33 1.6443e-14
6059.01 1.6779e-14
6061.7 1.5667e-14
6064.38 1.6564e-14
6067.07 1.6751e-14
6069.75 1.638e-14
6072.44 1.6445e-14
6075.12 1.4679e-14
6077.8 1.5217e-14
6080.49 1.6121e-14
6083.17 1.7045e-14
6085.86 1.7548e-14
6088.54 1.6966e-14
6091.23 1.4511e-14
6093.91 1.4937e-14
6096.59 1.5649e-14
6099.28 1.4625e-14
6101.96 1.443e-14
6104.65 1.667e-14
6107.33 1.5554e-14
6110.02 1.5525e-14
6112.7 1.6704e-14
6115.39 1.5564e-14
6118.07 1.5083e-14
6120.75 1.46e-14
6123.44 1.6983e-14
6126.12 1.5794e-14
6128.81 1.6752e-14
6131.49 1.6489e-14
6134.18 1.4969e-14
6136.86 1.5636e-14
6139.55 1.6983e-14
6142.23 1.513e-14
6144.91 1.5147e-14
6147.6 1.5934e-14
6150.28 1.5133e-14
6152.97 1.6597e-14
6155.65 1.6741e-14
6158.34 1.6006e-14
6161.02 1.516e-14
6163.7 1.6299e-14
6166.39 1.5387e-14
6169.07 1.4551e-14
6171.76 1.5268e-14
6174.44 1.6953e-14
6177.13 1.5561e-14
6179.81 1.4508e-14
6182.5 1.5784e-14
6185.18 1.5704e-14
6187.86 1.6279e-14
6190.55 1.6109e-14
6193.23 1.4922e-14
6195.92 1.6552e-14
6198.6 1.6371e-14
6201.29 1.5471e-14
6203.97 1.6905e-14
6206.65 1.4738e-14
6209.34 1.4752e-14
6212.02 1.5545e-14
6214.71 1.4035e-14
6217.39 1.4903e-14
6220.08 1.606e-14
6222.76 1.4559e-14
6225.45 1.3605e-14
6228.13 1.5634e-14
6230.81 1.6037e-14
6233.5 1.4619e-14
6236.18 1.4635e-14
6238.87 1.5843e-14
6241.55 1.5815e-14
6244.24 1.5612e-14
6246.92 1.5725e-14
6249.6 1.5872e-14
6252.29 1.5211e-14
6254.97 1.4694e-14
6257.66 1.5009e-14
6260.34 1.5438e-14
6263.03 1.521e-14
6265.71 1.4185e-14
6268.4 1.476e-14
6271.08 1.4266e-14
6273.76 1.5089e-14
6276.45 1.5211e-14
6279.13 1.5469e-14
6281.82 1.5456e-14
6284.5 1.6123e-14
6287.19 1.6051e-14
6289.87 1.496e-14
6292.55 1.5325e-14
6295.24 1.6233e-14
6297.92 1.7233e-14
6300.61 1.9441e-14
6303.29 1.9269e-14
6305.98 1.9146e-14
6308.66 1.7896e-14
6311.35 1.7557e-14
6314.03 1.5039e-14
6316.71 1.4208e-14
6319.4 1.4087e-14
6322.08 1.486e-14
6324.77 1.4713e-14
6327.45 1.6436e-14
6330.14 1.4774e-14
6332.82 1.715e-14
6335.51 1.5508e-14
6338.19 1.7664e-14
6340.87 1.5857e-14
6343.56 1.6657e-14
6346.24 1.5932e-14
6348.93 1.6485e-14
6351.61 1.4551e-14
6354.3 1.5693e-14
6356.98 1.4204e-14
6359.66 1.521e-14
6362.35 1.5352e-14
6365.03 1.5119e-14
6367.72 1.5689e-14
6370.4 1.6536e-14
6373.09 1.5115e-14
6375.77 1.5697e-14
6378.46 1.5827e-14
6381.14 1.5214e-14
6383.82 1.4462e-14
6386.51 1.5848e-14
6389.19 1.5697e-14
6391.88 1.5643e-14
6394.56 1.5817e-14
6397.25 1.4595e-14
6399.93 1.4565e-14
6402.61 1.4069e-14
6405.3 1.5292e-14
6407.98 1.2376e-14
6410.67 1.5284e-14
6413.35 1.4548e-14
6416.04 1.5851e-14
6418.72 1.4126e-14
6421.41 1.6288e-14
6424.09 1.4106e-14
6426.77 1.3873e-14
6429.46 1.4373e-14
6432.14 1.6014e-14
6434.83 1.5608e-14
6437.51 1.5497e-14
6440.2 1.445e-14
6442.88 1.5094e-14
6445.56 1.4224e-14
6448.25 1.3782e-14
6450.93 1.5178e-14
6453.62 1.4637e-14
6456.3 1.4647e-14
6458.99 1.6099e-14
6461.67 1.5285e-14
6464.36 1.5429e-14
6467.04 1.6484e-14
6469.72 1.5848e-14
6472.41 1.4873e-14
6475.09 1.5379e-14
6477.78 1.5596e-14
6480.46 1.5185e-14
6483.15 1.5839e-14
6485.83 1.6349e-14
6488.51 1.5331e-14
6491.2 1.5585e-14
6493.88 1.6594e-14
6496.57 1.6177e-14
6499.25 1.4965e-14
6501.94 1.5255e-14
6504.62 1.4798e-14
6507.31 1.4822e-14
6509.99 1.5198e-14
6512.67 1.5227e-14
6515.36 1.5491e-14
6518.04 1.5482e-14
6520.73 1.5267e-14
6523.41 1.4496e-14
6526.1 1.6271e-14
6528.78 1.6689e-14
6531.46 1.4201e-14
6534.15 1.5429e-14
6536.83 1.4406e-14
6539.52 1.6796e-14
6542.2 1.7605e-14
6544.89 1.8587e-14
6547.57 2.0828e-14
6550.26 2.7277e-14
6552.94 2.4606e-14
6555.62 2.6172e-14
6558.31 3.3113e-14
6560.99 5.4026e-14
6563.68 8.4909e-14
6566.36 9.5292e-14
6569.05 7.8456e-14
6571.73 4.9359e-14
6574.42 2.7474e-14
6577.1 2.1834e-14
6579.78 2.4699e-14
6582.47 3.4409e-14
6585.15 4.213e-14
6587.84 4.3676e-14
6590.52 3.619e-14
6593.21 2.5963e-14
6595.89 2.0296e-14
6598.57 1.7304e-14
6601.26 1.7003e-14
6603.94 1.5295e-14
6606.63 1.6115e-14
6609.31 1.506e-14
6612.0 1.5752e-14
6614.68 1.559e-14
6617.37 1.6781e-14
6620.05 1.5842e-14
6622.73 1.692e-14
6625.42 1.7088e-14
6628.1 1.5746e-14
6630.79 1.5806e-14
6633.47 1.4284e-14
6636.16 1.4618e-14
6638.84 1.5122e-14
6641.52 1.4616e-14
6644.21 1.4835e-14
6646.89 1.7067e-14
6649.58 1.5636e-14
6652.26 1.5108e-14
6654.95 1.6594e-14
6657.63 1.5714e-14
6660.32 1.4886e-14
6663.0 1.6809e-14
6665.68 1.8415e-14
6675.93 1.5199e-14
6691.32 1.5094e-14
6706.74 1.5163e-14
6722.21 1.4513e-14
6737.7 1.5057e-14
6753.23 1.4714e-14
6768.8 1.5022e-14
6784.41 1.516e-14
6800.04 1.4712e-14
6815.72 1.4916e-14
6831.43 1.5158e-14
6847.18 1.4442e-14
6862.96 1.4475e-14
6878.79 1.4408e-14
6894.64 1.4441e-14
6910.53 1.4473e-14
6926.47 1.4506e-14
6942.43 1.4912e-14
6958.44 1.4741e-14
6974.48 1.5223e-14
6990.56 1.5153e-14
7006.67 1.4638e-14
7022.83 1.4271e-14
7039.01 1.5047e-14
7055.24 1.5575e-14
7071.5 1.4237e-14
7087.81 1.4907e-14
7104.14 1.417e-14
7120.52 1.4137e-14
7136.94 1.3594e-14
7153.39 1.3814e-14
7169.88 1.3973e-14
7186.41 1.3592e-14
7202.97 1.3686e-14
7219.58 1.4264e-14
7236.22 1.433e-14
7252.9 1.41e-14
7269.62 1.4002e-14
7286.38 1.4197e-14
7303.18 1.4729e-14
7320.01 1.4493e-14
7336.88 1.4728e-14
7353.8 1.4863e-14
7370.75 1.4391e-14
7387.74 1.5069e-14
7404.78 1.5034e-14
7421.84 1.4423e-14
7438.95 1.4758e-14
7456.1 1.4963e-14
7473.29 1.517e-14
7490.52 1.4824e-14
7507.78 1.5134e-14
7525.09 1.5344e-14
7542.44 1.5343e-14
7559.82 1.5098e-14
7577.25 1.4856e-14
7594.72 1.4719e-14
7612.23 1.4516e-14
7629.77 1.4616e-14
7647.37 1.4548e-14
7664.99 1.4086e-14
7682.66 1.4021e-14
7700.37 1.4118e-14
7718.12 1.4085e-14
7735.92 1.4052e-14
7753.75 1.3795e-14
7771.62 1.4115e-14
7789.54 1.3857e-14
7807.5 1.3825e-14
7825.49 1.4409e-14
7843.53 1.3792e-14
7861.61 1.4177e-14
7879.74 1.4144e-14
7897.9 1.4307e-14
7916.11 1.3758e-14
7934.36 1.3757e-14
7952.65 1.3168e-14
7970.98 1.3724e-14
7989.36 1.3914e-14
8007.77 1.3535e-14
8026.23 1.4205e-14
8044.73 1.4402e-14
8063.28 1.4302e-14
8081.87 1.3721e-14
8100.5 1.3254e-14
8119.17 1.4007e-14
8137.89 1.4038e-14
8156.65 1.3561e-14
8175.45 1.3655e-14
8194.3 1.3436e-14
8213.19 1.3939e-14
8232.12 1.3653e-14
8251.1 1.3842e-14
8270.12 1.4328e-14
8289.18 1.3714e-14
8308.29 1.3713e-14
8327.44 1.3713e-14
8346.64 1.3338e-14
8365.88 1.3806e-14
8385.17 1.3399e-14
8404.5 1.3679e-14
8423.87 1.3678e-14
8443.29 1.2735e-14
8462.75 1.352e-14
8482.26 1.3551e-14
8501.82 1.3395e-14
8521.42 1.3211e-14
8541.06 1.3302e-14
8560.75 1.3028e-14
8580.48 1.3485e-14
8600.26 1.3178e-14
8620.09 1.2877e-14
8639.96 1.3483e-14
8659.88 1.2995e-14
8679.84 1.2611e-14
8699.85 1.2553e-14
8719.91 1.3235e-14
8740.0 1.3326e-14
8760.16 1.2465e-14
8780.35 1.3142e-14
8800.59 1.3171e-14
8820.88 1.3447e-14
8841.21 1.3446e-14
8861.59 1.323e-14
8882.02 1.2605e-14
8902.5 1.2869e-14
8923.02 1.2898e-14
8943.59 1.3016e-14
8964.21 1.2459e-14
8984.87 1.2429e-14
9005.58 1.3135e-14
9026.34 1.0975e-14
9047.15 1.347e-14
9068.0 1.3439e-14
9088.91 1.2004e-14
9109.86 1.2369e-14
9130.86 1.3041e-14
9151.91 1.2539e-14
9173.01 1.2713e-14
9194.15 1.248e-14
9215.35 1.2624e-14
9236.59 1.1863e-14
9257.88 1.2393e-14
9279.22 1.3066e-14
9300.62 1.2335e-14
9322.06 1.2826e-14
9343.55 1.2796e-14
9365.09 1.262e-14
9386.68 1.2765e-14
9408.31 1.2532e-14
9430.0 1.2794e-14
9451.74 1.2617e-14
9473.53 1.2822e-14
9495.37 1.2792e-14
9517.26 1.2586e-14
9539.2 1.2557e-14
9561.18 1.2498e-14
9583.23 1.273e-14
9605.32 1.2613e-14
9627.46 1.2641e-14
9649.65 1.2496e-14
9671.9 1.2466e-14
9694.2 1.261e-14
9716.54 1.2465e-14
9738.94 1.2379e-14
9761.39 1.2349e-14
9783.89 1.2207e-14
9806.45 1.2434e-14
9829.05 1.2348e-14
9851.72 1.2404e-14
9874.43 1.2318e-14
9897.19 1.2289e-14
9920.0 1.2204e-14
9942.87 1.2287e-14
9965.79 1.2287e-14
9988.77 1.223e-14
10034.87 1.2088e-14
10081.19 1.1894e-14
10127.72 1.2114e-14
10174.47 1.2001e-14
10221.43 1.2028e-14
10268.61 1.2026e-14
10292.28 1.1943e-14
10507.8 1.1613e-14
10703.15 1.1193e-14
10902.14 1.0714e-14
11104.83 1.035e-14
11311.28 1.0138e-14
11495.08 1.0068e-14
11708.78 9.8389e-15
11899.04 9.5487e-15
12092.38 9.3745e-15
12288.86 9.2034e-15
12488.54 8.9939e-15
12691.46 8.7891e-15
12897.68 8.5891e-15
13107.25 8.4517e-15
13289.59 8.2404e-15
13505.53 8.1086e-15
13693.41 7.9606e-15
13915.91 7.7259e-15
14109.5 7.4464e-15
14305.78 7.3105e-15
14504.8 7.3105e-15
14706.58 7.1113e-15
14911.17 7.1605e-15
15083.84 7.1605e-15
15293.68 7.2268e-15
15506.44 7.1936e-15
15685.98 7.0623e-15
15904.19 6.8069e-15
16088.36 6.8383e-15
16312.17 6.7912e-15
16501.06 6.6672e-15
16692.12 6.6061e-15
16885.41 6.4706e-15
17080.94 6.3525e-15
17318.56 6.1087e-15
17519.11 5.9559e-15
17681.2 5.7537e-15
17885.94 5.584e-15
18093.06 5.3573e-15
18302.55 5.2233e-15
18514.49 5.0576e-15
18685.81 4.8523e-15
18902.18 4.7309e-15
19121.04 4.6553e-15
19297.98 4.5076e-15
19521.44 4.3446e-15
19702.06 4.2164e-15
19884.37 4.1015e-15
20114.62 4.036e-15
20300.73 3.8989e-15
20488.58 3.8366e-15
20678.16 3.732e-15
20917.59 3.6471e-15
21111.15 3.5805e-15
21306.49 3.499e-15
21503.63 3.4194e-15
21702.61 3.3109e-15
21903.4 3.258e-15
22106.08 3.1692e-15
22310.64 3.0899e-15
22517.06 3.0052e-15
22725.42 2.8922e-15
22882.93 2.5831e-15
23094.67 2.5305e-15
23308.35 2.1983e-15
23524.03 2.0408e-15
23687.11 2.0473e-15
23906.26 1.8644e-15
24127.48 1.7811e-15
24294.71 1.7525e-15
24519.51 1.6196e-15
24689.46 1.5888e-15
24891.35 1.3297e-15
24985.85 1.3156e-15
25080.34 1.3485e-15
25174.73 1.3392e-15
25269.22 1.3413e-15
25363.71 1.3734e-15
25458.1 1.4013e-15
25552.59 1.4111e-15
25646.98 1.404e-15
25741.47 1.3863e-15
25835.97 1.396e-15
25930.36 1.3903e-15
26024.85 1.3684e-15
26119.34 1.3565e-15
26213.73 1.402e-15
26308.22 1.4314e-15
26402.61 1.3936e-15
26497.1 1.3348e-15
26591.59 1.3071e-15
26685.99 1.2924e-15
26780.48 1.2676e-15
26874.97 1.2521e-15
26969.36 1.2561e-15
27063.85 1.2558e-15
27158.25 1.2099e-15
27252.73 1.1524e-15
27347.22 1.1504e-15
27441.62 1.1459e-15
27536.11 1.1452e-15
27630.6 1.1088e-15
27724.99 1.1338e-15
27819.48 1.1524e-15
27913.87 1.1432e-15
28008.36 1.12e-15
28102.85 1.1362e-15
28197.25 1.1193e-15
28291.74 1.1127e-15
28386.23 1.1018e-15
28480.62 1.1001e-15
28575.11 1.0767e-15
28669.5 1.0533e-15
28763.99 1.0308e-15
28858.48 1.0169e-15
28952.88 9.9488e-16
29047.37 9.9215e-16
29141.86 9.815e-16
29236.25 1.0046e-15
29330.74 1.0139e-15
29425.13 1.0011e-15
29519.62 9.882e-16
29614.11 9.8285e-16
29708.5 9.8627e-16
29803.0 9.494e-16
29897.48 9.2131e-16
29991.88 9.2604e-16
30086.37 9.1729e-16
30180.76 8.9927e-16
30275.25 9.041e-16
30369.74 9.1278e-16
30464.13 8.646e-16
30558.62 8.6508e-16
30653.12 8.683e-16
30747.51 9.0853e-16
30842.0 9.0159e-16
30936.39 8.9709e-16
31030.88 8.7978e-16
31125.37 8.7463e-16
31219.76 8.6312e-16
31314.25 8.7376e-16
31408.74 8.8345e-16
31503.14 9.1693e-16
31597.63 9.5056e-16
31692.02 9.5895e-16
31786.51 9.3722e-16
31881.0 9.882e-16
31975.39 9.8797e-16
32069.88 1.0154e-15
32164.37 1.0505e-15
32258.77 1.1523e-15
32353.26 1.232e-15
32447.65 1.2593e-15
32542.14 1.31e-15
32636.63 1.3953e-15
32731.02 1.4371e-15
32825.52 1.5031e-15
32920.0 1.498e-15
33014.39 1.5152e-15
33108.89 1.4684e-15
33203.28 1.3732e-15
33297.77 1.2796e-15
33392.26 1.2393e-15
33486.65 1.2027e-15
33581.14 1.1085e-15
33675.63 1.0127e-15
33770.03 1.041e-15
33864.52 1.0547e-15
33958.91 1.0444e-15
34053.4 1.0166e-15
34147.89 1.0215e-15
34242.28 1.0619e-15
34336.77 1.0609e-15
34431.26 1.0217e-15
34525.65 1.0161e-15
34620.14 9.996e-16
34714.54 9.6011e-16
34809.03 9.1736e-16
34903.52 9.0035e-16
34997.91 8.525e-16
35092.4 8.162e-16
35186.89 7.9166e-16
35281.28 8.1562e-16
35375.77 7.7129e-16
35470.17 7.469e-16
35564.66 7.4463e-16
35659.15 7.5744e-16
35753.54 7.3115e-16
35848.03 7.4349e-16
35942.52 7.4633e-16
36036.91 7.5686e-16
36131.4 7.7838e-16
36225.8 7.5742e-16
36320.28 7.2209e-16
36414.78 7.0198e-16
36509.17 6.9664e-16
36603.66 6.9523e-16
36698.15 7.0331e-16
36792.55 7.1942e-16
36887.03 7.1112e-16
36981.42 7.1421e-16
37075.92 7.0185e-16
37170.41 7.0286e-16
37264.8 6.9371e-16
37359.29 7.0368e-16
37453.78 7.1246e-16
37548.17 7.0724e-16
37642.66 7.0196e-16
37737.06 6.8874e-16
37831.55 7.0605e-16
37926.03 7.1081e-16
38020.43 6.9247e-16
38114.92 6.6766e-16
38209.41 6.4321e-16
38303.8 6.4019e-16
38398.29 6.3885e-16
38492.69 6.4082e-16
38587.17 6.1046e-16
38681.66 6.3638e-16
38776.06 6.2541e-16
38870.55 6.3341e-16
38965.04 6.1847e-16
39059.43 6.3882e-16
39153.92 6.235e-16
39248.31 6.3552e-16
39342.8 6.4629e-16
39437.3 6.6403e-16
39531.69 6.4405e-16
39626.18 6.2635e-16
39720.67 6.1555e-16
39815.06 6.1979e-16
39909.55 6.1512e-16
40003.94 6.2048e-16
40098.44 6.3325e-16
40192.92 6.5116e-16
40287.32 6.4703e-16
40381.81 6.5204e-16
40476.3 6.6996e-16
40570.69 6.7483e-16
40665.18 6.6261e-16
40759.57 6.3202e-16
40854.06 6.085e-16
40948.55 5.8443e-16
41042.95 5.6691e-16
41137.44 5.6055e-16
41231.93 5.568e-16
41326.32 5.703e-16
41420.81 5.6532e-16
41515.2 5.4872e-16
41609.69 5.4083e-16
41704.18 5.4908e-16
41798.58 5.5362e-16
41893.06 5.49e-16
41987.56 5.3116e-16
42081.95 5.4418e-16
42176.44 5.3511e-16
42270.83 5.3561e-16
42365.32 5.2384e-16
42459.81 5.4156e-16
42554.2 5.2578e-16
42648.7 4.9232e-16
42743.19 4.7933e-16
42837.58 4.9741e-16
42932.07 5.1018e-16
43026.46 5.1207e-16
43120.95 5.0009e-16
43215.44 5.079e-16
43309.83 5.0493e-16
43404.32 5.1715e-16
43498.82 5.014e-16
43593.21 5.1702e-16
43687.7 5.1619e-16
43782.09 5.117e-16
43876.58 4.9624e-16
43971.07 4.9082e-16
44065.46 4.5829e-16
44159.96 4.1504e-16
44254.44 4.047e-16
44348.84 4.341e-16
44443.33 4.2822e-16
44537.72 4.3452e-16
44632.21 4.4124e-16
44726.7 4.6744e-16
44821.09 4.5534e-16
44915.58 4.4338e-16
45009.98 4.532e-16
45104.47 4.4378e-16
45198.96 4.4306e-16
45293.35 4.4574e-16
45387.84 4.5004e-16
45482.33 4.6941e-16
45576.72 4.6296e-16
45671.21 4.621e-16
45765.7 4.473e-16
45860.1 4.4803e-16
45954.58 4.5543e-16
46048.98 4.7337e-16
46143.47 4.5908e-16
46237.96 4.6791e-16
46332.35 4.8534e-16
46426.84 4.7197e-16
46521.24 4.4398e-16
46615.72 4.2853e-16
46710.22 4.3029e-16
46804.61 4.2453e-16
46899.1 4.1346e-16
46993.59 4.1685e-16
47087.99 4.1188e-16
47182.47 4.0942e-16
47276.96 4.1187e-16
47371.36 4.3064e-16
47465.84 4.207e-16
47560.24 4.1038e-16
47654.73 3.8531e-16
47749.22 3.814e-16
47843.61 3.7771e-16
47938.1 3.7023e-16
48032.5 3.5308e-16
48126.98 3.4901e-16
48221.47 3.419e-16
48316.84 3.2529e-16
48800.01 3.5104e-16
49288.01 3.7704e-16
49780.89 4.0331e-16
50278.7 4.2984e-16
50781.49 4.5663e-16
51289.3 4.8369e-16
51802.2 5.1102e-16
52084.58 5.2607e-16
52387.03 6.0504e-16
52689.5 6.1307e-16
52991.95 5.6357e-16
53294.41 5.9088e-16
53596.87 5.1808e-16
53899.34 3.4766e-16
54201.79 3.8893e-16
54504.26 4.3285e-16
54806.71 4.9571e-16
55109.18 4.9969e-16
55411.64 4.7618e-16
55714.1 4.9285e-16
56016.56 5.656e-16
56319.02 6.3834e-16
56621.47 6.7e-16
56923.94 6.9892e-16
57226.41 7.0953e-16
57528.86 6.7118e-16
57831.32 6.4222e-16
58133.79 6.0715e-16
58436.24 6.2504e-16
58738.7 6.3612e-16
59041.17 6.7691e-16
59343.62 6.537e-16
59646.08 6.9412e-16
59948.55 8.1537e-16
60251.01 9.3513e-16
60553.46 9.5114e-16
60855.93 9.5775e-16
61158.38 1.1258e-15
61460.84 1.5794e-15
61763.3 2.2022e-15
62065.77 2.607e-15
62368.23 2.5063e-15
62670.69 2.1145e-15
62973.14 1.6499e-15
63275.61 1.4584e-15
63578.07 1.2642e-15
63880.52 1.1483e-15
64182.99 1.0403e-15
64485.44 9.4215e-16
64787.9 8.9362e-16
65090.38 8.5249e-16
65392.83 8.2221e-16
65695.29 8.1065e-16
65997.75 8.4226e-16
66300.21 9.0037e-16
66602.68 8.7898e-16
66905.13 8.6436e-16
67207.59 8.5074e-16
67510.06 8.2175e-16
67812.51 7.3787e-16
68114.97 8.3347e-16
68417.43 8.2772e-16
68719.89 8.4912e-16
69022.36 9.4764e-16
69324.81 9.7049e-16
69627.27 1.1571e-15
69929.74 1.3153e-15
70232.19 1.1397e-15
70534.66 1.0502e-15
70837.11 1.0834e-15
71139.57 1.0913e-15
71442.05 1.1124e-15
71744.5 1.0907e-15
72046.95 1.1038e-15
72349.42 1.1775e-15
72651.88 1.1856e-15
72954.34 1.3122e-15
73256.8 1.3604e-15
73539.46 1.3735e-15
73559.26 1.4512e-15
73861.73 1.6045e-15
74145.58 1.7407e-15
74164.18 1.765e-15
74751.71 2.0177e-15
75357.83 2.3784e-15
75963.96 2.6337e-15
76570.08 2.5856e-15
77176.22 2.4516e-15
77782.34 2.3656e-15
78388.46 2.2494e-15
78994.6 2.001e-15
79600.72 1.7293e-15
80206.84 1.5027e-15
80812.97 1.3095e-15
81419.09 1.1766e-15
82025.23 1.119e-15
82631.35 1.1022e-15
83237.48 1.1015e-15
83843.6 1.0973e-15
84449.73 1.1235e-15
85055.85 1.1974e-15
85661.98 1.2324e-15
86268.11 1.1936e-15
86874.23 1.0301e-15
87480.35 8.7249e-16
88086.48 6.8614e-16
88692.6 5.5452e-16
89298.74 4.8925e-16
89904.86 4.748e-16
90510.99 4.1793e-16
91117.12 3.5792e-16
91723.24 3.3269e-16
92329.36 3.2461e-16
92935.48 3.0709e-16
93541.62 3.0625e-16
94147.74 2.8348e-16
94753.86 2.7248e-16
95360.0 2.7477e-16
95966.13 2.854e-16
96572.25 3.1941e-16
97178.38 2.8144e-16
97784.46 2.4763e-16
98390.63 2.3607e-16
98996.72 2.318e-16
99602.91 2.3092e-16
100208.99 2.3985e-16
100815.17 2.3203e-16
101421.26 2.2562e-16
102027.35 2.3847e-16
102633.52 2.3063e-16
103239.61 2.3862e-16
103845.8 2.5076e-16
104451.88 2.7433e-16
105057.96 3.1546e-16
105664.15 3.3055e-16
106270.24 3.242e-16
106876.41 3.1463e-16
107482.49 3.2446e-16
108088.68 3.2702e-16
108694.77 3.3995e-16
109300.85 3.8637e-16
109907.03 4.6742e-16
110513.12 5.1412e-16
111119.3 6.6225e-16
111725.38 1.0247e-15
112331.57 1.3316e-15
112937.65 1.2422e-15
113543.73 9.9316e-16
114149.92 8.1066e-16
114756.01 6.8768e-16
115362.18 6.1262e-16
115968.26 5.4005e-16
116574.45 5.2428e-16
117180.54 5.2143e-16
117786.62 5.2685e-16
118392.81 5.3957e-16
118998.89 5.6503e-16
119605.07 5.8751e-16
120211.15 5.9366e-16
120817.25 5.8104e-16
121423.43 5.7225e-16
122029.51 5.8167e-16
122635.69 6.2987e-16
123241.78 6.4504e-16
123847.96 6.4716e-16
124454.05 6.7622e-16
125060.13 7.145e-16
125666.31 7.5229e-16
126272.4 7.8337e-16
126878.58 8.2966e-16
127484.66 9.5603e-16
128090.75 1.2742e-15
128696.93 9.8909e-16
129303.02 6.0696e-16
129909.2 5.4255e-16
130515.28 5.2277e-16
131121.46 5.078e-16
131727.55 5.0526e-16
132333.64 5.0168e-16
132939.83 4.9988e-16
133545.9 5.0091e-16
134152.08 5.0451e-16
134758.17 4.9847e-16
135364.36 5.036e-16
135970.43 4.9296e-16
136576.52 4.928e-16
137182.71 4.7615e-16
137788.8 4.7398e-16
138394.96 4.6035e-16
139001.06 4.6264e-16
139607.24 4.5187e-16
140213.33 4.3817e-16
140819.4 4.2396e-16
141425.6 4.1818e-16
141947.15 4.3763e-16
142842.16 4.6828e-16
143737.28 4.2784e-16
144632.31 4.0877e-16
145527.32 4.0017e-16
146422.35 3.9415e-16
147317.47 3.8187e-16
148212.5 3.8664e-16
149107.51 3.8474e-16
150002.63 3.6532e-16
150897.66 3.6726e-16
151792.67 3.6763e-16
152687.7 3.6249e-16
153582.82 3.6108e-16
154477.85 3.8943e-16
155372.86 4.6826e-16
156267.98 4.9544e-16
157163.01 3.7189e-16
158058.02 3.6351e-16
158953.14 3.6811e-16
159848.17 3.6185e-16
160743.18 3.6235e-16
161638.21 3.5261e-16
162533.35 4.0167e-16
163428.35 4.2655e-16
164323.37 4.7813e-16
165218.4 4.8346e-16
166113.52 4.3016e-16
167008.55 4.2226e-16
167903.58 4.3107e-16
168798.7 4.4297e-16
169693.71 4.9863e-16
170588.74 5.4725e-16
171483.86 4.6664e-16
172378.87 4.676e-16
173273.9 4.5065e-16
174168.91 4.5179e-16
175064.03 4.0429e-16
175959.06 3.7302e-16
176854.07 3.8064e-16
177749.19 3.8128e-16
178644.22 3.8202e-16
179539.23 3.7038e-16
180434.35 3.4599e-16
181329.38 3.4652e-16
182224.41 3.4718e-16
183119.42 3.4545e-16
184014.54 3.4741e-16
184909.57 3.4339e-16
185804.58 3.6212e-16
186699.72 4.73e-16
187594.75 5.1585e-16
188489.74 3.9171e-16
189384.77 3.6205e-16
190279.91 3.7052e-16
191174.92 3.6531e-16
192069.95 3.6855e-16
192965.07 3.6959e-16
193860.08 3.6091e-16
194755.11 3.6303e-16
195650.14 3.6911e-16
196545.26 3.7343e-16
197440.27 3.7832e-16
198335.3 3.7787e-16
199230.42 4.0197e-16
200647.77 3.4281e-16
202360.88 3.9635e-16
204074.98 3.8429e-16
205790.07 3.7327e-16
207506.02 4.121e-16
209222.85 4.0427e-16
210940.66 3.9062e-16
212659.36 4.0947e-16
214379.02 3.7123e-16
216099.66 4.1947e-16
217821.17 4.0741e-16
219543.68 4.3253e-16
221267.05 4.4935e-16
222991.39 4.3872e-16
224716.71 4.2463e-16
226442.92 4.4607e-16
228170.11 4.5998e-16
229898.27 4.6631e-16
231627.31 4.5159e-16
233357.42 4.539e-16
235088.31 4.7731e-16
236820.26 4.8625e-16
238553.21 4.7917e-16
240287.03 4.7414e-16
242021.82 4.9398e-16
243757.59 5.0504e-16
245494.23 5.0501e-16
247231.96 5.0783e-16
248970.57 4.9808e-16
250710.25 5.1662e-16
252450.78 5.1435e-16
254192.34 5.2634e-16
255934.84 5.4429e-16
257678.31 5.3907e-16
259422.76 5.6156e-16
261168.22 5.5138e-16
262914.63 5.4338e-16
264662.01 5.5422e-16
266410.37 5.5128e-16
268159.7 5.4001e-16
269910.13 5.3638e-16
271661.41 5.4945e-16
273413.68 5.6671e-16
275167.01 5.7381e-16
276921.34 5.6728e-16
278676.53 5.6185e-16
280432.79 5.642e-16
282190.05 5.7718e-16
283948.38 5.7624e-16
285707.66 5.9284e-16
287467.85 5.5474e-16
289229.18 5.9498e-16
290991.41 5.6612e-16
292754.69 5.8376e-16
294518.97 5.7419e-16
296284.22 6.1752e-16
298050.55 5.9436e-16
299817.85 5.98e-16
301586.12 5.971e-16
303355.47 6.0611e-16
305125.91 5.9655e-16
306897.3 5.8924e-16
308669.69 6.0504e-16
310443.03 6.244e-16
312217.56 6.1314e-16
313992.97 6.2077e-16
315769.52 6.4316e-16
317546.98 6.0854e-16
319325.59 6.3802e-16
321105.22 6.2821e-16
322885.76 6.339e-16
324667.42 6.5318e-16
326450.16 6.463e-16
328233.93 7.0447e-16
330018.74 6.6816e-16
331804.56 7.2293e-16
333591.38 7.5343e-16
335379.3 7.9194e-16
337168.38 6.9246e-16
338958.32 7.0091e-16
340749.44 7.9358e-16
