# col1 col2
# An Atlas of Galaxy Spectral Energy Distributions from the Ultraviolet to the Mid-Infrared
# Brown et al. (2014)
# http://dx.doi.org/10.5072/03/529D3551F0117
# 
# Column 1 : Restframe Wavelength (Angstrom)
# Column 2 : Flux per unit wavelength (ergs/s/cm^2/Angstrom)
# Column 3 : Observed wavelength (Angstrom)
# Column 4 : Source (0 = model, 1 = Optical Spectrum, 2 = Akari, 3 = Spitzer IRS)
# 
100.06 1.3659e-18
101.92 1.8007e-18
104.05 2.1749e-18
105.99 2.6757e-18
107.96 3.3607e-18
109.97 4.7471e-18
114.09 6.6593e-18
118.1 8.8192e-18
121.13 3.2168e-17
125.1 3.9576e-17
127.13 4.27e-17
128.01 4.5023e-17
131.0 4.9594e-17
131.9 5.8402e-17
134.05 6.1863e-17
136.85 7.7881e-17
140.04 8.4417e-17
142.97 2.3737e-16
146.98 5.9488e-16
151.1 6.3158e-16
154.97 6.7831e-16
158.95 7.3018e-16
161.9 7.6812e-16
166.06 8.3067e-16
169.92 8.7989e-16
173.08 9.2349e-16
177.12 9.7596e-16
179.99 1.0149e-15
182.08 1.0434e-15
185.89 1.0976e-15
191.1 1.168e-15
194.2 1.2202e-15
197.81 1.2718e-15
201.96 1.3348e-15
204.77 1.3786e-15
210.02 1.3881e-15
215.9 1.5361e-15
219.92 1.6048e-15
222.98 1.6272e-15
227.12 1.7038e-15
229.75 2.5789e-15
234.02 4.3695e-15
240.02 5.3019e-15
246.18 4.9938e-15
251.92 5.2412e-15
257.19 4.4201e-15
260.17 5.04e-15
263.79 5.2412e-15
268.69 5.2051e-15
273.69 5.1455e-15
278.78 5.0866e-15
283.96 5.0516e-15
289.91 4.7581e-15
295.98 4.791e-15
300.79 4.7036e-15
307.79 4.6928e-15
317.87 4.682e-15
328.29 4.5754e-15
338.26 4.4405e-15
347.74 4.2996e-15
356.66 4.2017e-15
365.81 4.1156e-15
375.19 3.9942e-15
384.82 3.7621e-15
394.69 3.7534e-15
404.81 3.668e-15
414.24 3.5517e-15
421.95 3.439e-15
429.79 3.3453e-15
440.81 3.2466e-15
451.08 3.1148e-15
460.53 3.016e-15
470.17 2.9203e-15
480.02 2.8407e-15
490.07 2.7129e-15
500.33 2.6511e-15
506.12 2.5848e-15
511.98 2.6208e-15
520.3 2.5552e-15
529.98 2.4515e-15
539.83 2.3304e-15
549.87 2.2513e-15
560.09 2.2306e-15
570.5 2.195e-15
579.77 2.101e-15
590.55 2.0627e-15
600.15 1.9608e-15
609.9 1.7275e-15
619.81 1.8942e-15
629.88 1.8257e-15
640.11 1.7924e-15
650.51 1.7395e-15
658.05 1.6805e-15
665.67 1.6766e-15
674.93 1.6384e-15
684.32 1.5539e-15
695.43 1.5611e-15
705.11 1.4738e-15
716.57 1.4908e-15
726.53 1.4536e-15
734.95 1.427e-15
745.17 1.3945e-15
755.54 1.3628e-15
764.29 1.2457e-15
774.92 1.3105e-15
785.7 1.266e-15
794.8 1.2573e-15
805.85 1.24e-15
815.19 1.2174e-15
824.62 1.2062e-15
834.17 1.095e-15
845.78 1.1546e-15
855.57 1.1309e-15
865.48 1.1231e-15
875.5 1.118e-15
885.64 1.1103e-15
895.89 1.1001e-15
904.18 1.0726e-15
914.65 1.3441e-15
925.24 4.0872e-15
935.96 7.7881e-15
944.62 1.3628e-14
955.56 1.8682e-14
964.4 2.0674e-14
975.57 4.3095e-15
984.59 1.7157e-14
995.99 1.8048e-14
1005.21 2.5967e-14
1014.51 2.4913e-14
1023.9 1.1026e-14
1035.75 1.7435e-14
1045.34 3.2541e-14
1055.01 3.1727e-14
1064.77 2.4856e-14
1074.62 2.9406e-14
1084.57 2.2931e-14
1094.6 3.0509e-14
1104.73 2.9069e-14
1114.95 2.7697e-14
1125.27 2.4685e-14
1135.68 3.1292e-14
1146.19 2.8277e-14
1154.13 2.9883e-14
1164.81 3.065e-14
1175.59 2.101e-14
1183.74 2.927e-14
1194.69 2.0018e-14
1205.75 1.4336e-14
1214.11 9.6701e-15
1225.34 1.9473e-14
1233.83 2.9338e-14
1245.25 3.2168e-14
1253.88 3.0509e-14
1265.48 2.5967e-14
1274.26 3.3607e-14
1286.05 3.511e-14
1294.96 2.7443e-14
1303.94 2.688e-14
1316.0 3.3762e-14
1325.12 3.2094e-14
1334.31 2.8147e-14
1343.56 3.3607e-14
1355.99 3.2317e-14
1365.39 2.8604e-14
1374.85 3.0021e-14
1384.38 3.016e-14
1393.98 2.6027e-14
1403.64 2.6942e-14
1416.63 2.7443e-14
1426.45 2.8082e-14
1436.34 2.7761e-14
1442.97 2.927e-14
1446.29 2.9678e-14
1456.32 2.8736e-14
1466.41 2.6268e-14
1476.58 2.6087e-14
1483.39 2.6511e-14
1493.68 2.688e-14
1504.03 2.526e-14
1510.97 2.2358e-14
1517.95 2.3957e-14
1524.95 2.309e-14
1535.52 1.9926e-14
1546.17 2.195e-14
1553.3 2.0579e-14
1564.07 2.0866e-14
1574.91 2.2204e-14
1585.83 2.325e-14
1596.82 2.3628e-14
1604.19 2.309e-14
1615.31 2.3037e-14
1626.51 2.1649e-14
1634.02 2.2984e-14
1645.34 2.3304e-14
1656.75 2.1302e-14
1664.39 2.3304e-14
1672.08 2.0579e-14
1675.93 2.3358e-14
1683.67 2.4346e-14
1695.34 2.2669e-14
1703.16 2.1649e-14
1714.97 2.0485e-14
1726.86 2.0297e-14
1734.83 2.1599e-14
1746.85 2.101e-14
1754.92 2.2409e-14
1763.02 2.0344e-14
1775.24 2.0866e-14
1783.43 2.1156e-14
1795.79 2.2669e-14
1804.08 2.2306e-14
1816.59 2.0532e-14
1824.97 2.0866e-14
1833.4 1.9926e-14
1846.1 1.8173e-14
1854.63 1.8257e-14
1863.19 1.8855e-14
1876.1 2.0297e-14
1884.76 1.8682e-14
1893.46 1.7965e-14
1906.59 1.8899e-14
1915.39 1.8173e-14
1924.23 1.7719e-14
1933.11 1.7965e-14
1946.51 1.903e-14
1955.49 1.78e-14
1969.05 1.9518e-14
1978.14 1.9881e-14
1982.7 1.8899e-14
1996.44 1.8299e-14
2005.66 1.8725e-14
2014.91 1.8048e-14
2024.21 1.8639e-14
2033.56 1.7883e-14
2042.94 1.8639e-14
2057.1 1.7759e-14
2066.6 1.7719e-14
2076.14 1.903e-14
2085.72 2.0818e-14
2095.35 1.9518e-14
2105.02 1.9428e-14
2114.74 1.9926e-14
2124.5 1.9744e-14
2134.3 1.8299e-14
2144.16 1.9563e-14
2154.05 2.0065e-14
2163.99 1.8986e-14
2173.98 1.8812e-14
2184.02 1.9518e-14
2194.1 2.0111e-14
2204.23 1.9518e-14
2214.4 1.7678e-14
2224.62 1.7759e-14
2234.89 2.0111e-14
2245.21 1.9117e-14
2255.57 1.7275e-14
2265.98 1.7196e-14
2276.44 1.7965e-14
2286.95 1.9835e-14
2297.5 1.7971e-14
2302.8 1.904e-14
2313.43 1.7454e-14
2324.11 1.3775e-14
2334.84 1.5112e-14
2345.61 1.3663e-14
2356.44 1.6663e-14
2367.32 1.3803e-14
2372.77 1.4896e-14
2383.73 1.2773e-14
2394.73 1.398e-14
2405.78 1.3482e-14
2416.89 1.4189e-14
2422.46 1.7103e-14
2433.64 1.6722e-14
2444.87 1.8515e-14
2456.16 1.8782e-14
2467.5 1.7498e-14
2473.18 1.6334e-14
2484.6 1.4465e-14
2496.07 1.4607e-14
2507.59 1.8146e-14
2513.37 1.3271e-14
2519.16 1.2972e-14
2524.97 1.2709e-14
2536.62 1.4533e-14
2542.47 1.4638e-14
2554.21 1.9666e-14
2566.0 1.6824e-14
2577.84 1.9417e-14
2583.79 1.8209e-14
2595.71 1.724e-14
2607.69 1.5914e-14
2613.7 1.5202e-14
2625.77 1.7625e-14
2637.89 2.3953e-14
2643.97 2.9613e-14
2656.17 3.7734e-14
2662.3 2.6294e-14
2674.58 2.9181e-14
2686.93 3.231e-14
2693.12 2.5672e-14
2705.56 2.9971e-14
2718.04 2.3766e-14
2724.31 2.0563e-14
2736.88 2.4229e-14
2743.19 1.669e-14
2755.85 1.9756e-14
2762.21 2.3595e-14
2774.96 2.495e-14
2787.77 1.8253e-14
2794.19 1.1734e-14
2807.09 1.3113e-14
2813.56 2.2953e-14
2826.55 2.9998e-14
2833.06 2.8591e-14
2846.14 2.2776e-14
2852.7 1.6734e-14
2865.87 2.9031e-14
2872.48 3.6643e-14
2885.73 3.3671e-14
2892.39 3.9663e-14
2912.44 5.1615e-14
2932.62 4.5622e-14
2952.95 4.2616e-14
2973.42 4.4563e-14
2987.15 4.5107e-14
3007.85 4.5461e-14
3028.7 4.8089e-14
3049.69 4.9712e-14
3070.83 5.3811e-14
3092.12 5.2879e-14
3113.55 6.0353e-14
3127.92 5.6231e-14
3149.61 5.6416e-14
3171.44 6.1493e-14
3193.42 5.3487e-14
3208.16 5.8957e-14
3230.4 5.0114e-14
3252.79 6.8769e-14
3267.81 7.9558e-14
3290.46 7.8005e-14
3313.27 7.3546e-14
3320.9 7.0422e-14
3328.56 7.6534e-14
3336.23 7.7625e-14
3343.92 7.2803e-14
3351.63 7.216e-14
3359.36 7.9881e-14
3367.1 7.5613e-14
3374.86 5.4921e-14
3382.64 6.4105e-14
3390.44 7.7632e-14
3398.26 7.5195e-14
3406.09 7.7686e-14
3413.94 7.5944e-14
3421.81 8.0843e-14
3429.7 7.6523e-14
3437.61 7.7973e-14
3445.53 5.1298e-14
3453.47 8.1893e-14
3461.44 6.705e-14
3469.42 7.2703e-14
3477.41 6.3344e-14
3485.43 7.242e-14
3493.47 6.4419e-14
3501.52 7.3819e-14
3509.59 8.1156e-14
3517.68 6.7682e-14
3525.79 6.8965e-14
3533.92 8.2753e-14
3542.06 8.9937e-14
3550.23 8.7921e-14
3558.41 8.133e-14
3566.62 8.4024e-14
3574.84 6.1739e-14
3583.08 5.994e-14
3591.34 5.7263e-14
3599.62 8.8722e-14
3607.92 7.3315e-14
3616.23 7.9314e-14
3624.57 7.8254e-14
3632.92 9.6087e-14
3641.3 9.6566e-14
3649.69 7.9796e-14
3658.11 1.0403e-13
3666.54 1.043e-13
3674.99 1.0339e-13
3683.46 8.6821e-14
3691.95 8.3519e-14
3700.46 1.035e-13
3709.0 7.3979e-14
3717.55 1.1305e-13
3726.12 6.6593e-14
3734.7 8.3867e-14
3743.32 9.3273e-14
3751.94 5.507e-14
3760.59 8.5326e-14
3769.26 8.3607e-14
3777.95 1.0079e-13
3786.66 1.1737e-13
3795.39 8.9071e-14
3804.14 8.0334e-14
3812.91 1.0545e-13
3821.7 8.189e-14
3830.51 6.1716e-14
3839.34 5.5407e-14
3848.19 8.9481e-14
3857.06 9.3303e-14
3865.95 9.3339e-14
3874.86 7.6777e-14
3883.8 8.268e-14
3892.75 7.5782e-14
3901.72 1.0489e-13
3910.72 1.0664e-13
3919.73 1.1616e-13
3928.77 9.6882e-14
3937.82 3.7189e-14
3946.9 8.8426e-14
3956.0 1.1608e-13
3965.12 8.8089e-14
3976.55 9.9181e-14
3979.29 6.7297e-14
3982.03 8.8832e-14
3984.77 9.2821e-14
3987.51 1.455e-13
3990.25 1.0921e-13
3992.99 1.2864e-13
3995.73 1.3217e-13
3998.46 1.2685e-13
4001.2 1.3732e-13
4003.94 1.3268e-13
4006.68 1.9548e-13
4009.42 1.1866e-13
4012.16 1.6744e-13
4014.9 1.2888e-13
4017.64 9.3699e-14
4020.38 1.1573e-13
4023.12 1.5113e-13
4025.85 1.7297e-13
4028.59 1.2537e-13
4031.33 1.7754e-13
4034.07 1.8725e-13
4036.81 1.8074e-13
4039.55 1.8547e-13
4042.29 1.8995e-13
4045.03 1.3347e-13
4047.77 1.3928e-13
4050.5 1.2821e-13
4053.24 1.2039e-13
4055.98 1.3806e-13
4058.72 1.3961e-13
4061.46 1.2652e-13
4064.2 1.5915e-13
4066.94 1.6583e-13
4069.68 1.3609e-13
4072.42 2.0596e-13
4075.16 1.9586e-13
4077.89 1.468e-13
4080.63 1.3702e-13
4083.37 1.5882e-13
4086.11 1.3959e-13
4088.85 1.8027e-13
4091.59 1.2881e-13
4094.33 1.4646e-13
4097.07 1.3478e-13
4099.81 1.4205e-13
4102.55 1.0946e-13
4105.28 1.3938e-13
4108.02 1.3087e-13
4110.76 1.434e-13
4113.5 1.5174e-13
4116.24 1.7506e-13
4118.98 1.4872e-13
4121.72 1.4608e-13
4124.46 1.6114e-13
4127.2 1.2978e-13
4129.94 1.2727e-13
4132.67 1.3468e-13
4135.41 1.2578e-13
4138.15 1.5944e-13
4140.89 1.5873e-13
4143.63 1.3836e-13
4146.37 1.7382e-13
4149.11 1.6176e-13
4151.85 1.6107e-13
4154.59 1.6365e-13
4157.32 1.9074e-13
4160.06 1.6924e-13
4162.8 1.1682e-13
4165.54 1.2763e-13
4168.28 1.5598e-13
4171.02 1.7304e-13
4173.76 1.4797e-13
4176.5 1.8555e-13
4179.24 1.8933e-13
4181.98 1.7529e-13
4184.71 1.6277e-13
4187.45 1.9794e-13
4190.19 1.9569e-13
4192.93 1.6302e-13
4195.67 1.364e-13
4198.41 1.7959e-13
4201.15 2.0075e-13
4203.89 1.5546e-13
4206.63 1.0453e-13
4209.37 1.3032e-13
4212.1 1.6857e-13
4214.84 1.646e-13
4217.58 1.5768e-13
4220.32 1.6914e-13
4223.06 1.8602e-13
4225.8 1.8037e-13
4228.54 1.3886e-13
4231.28 1.251e-13
4234.02 1.4761e-13
4236.76 1.4522e-13
4239.49 1.4289e-13
4242.23 1.5179e-13
4244.97 1.7536e-13
4247.71 1.6424e-13
4250.45 1.5579e-13
4253.19 1.6233e-13
4255.93 1.1974e-13
4258.67 1.6342e-13
4261.41 1.7919e-13
4264.15 1.6588e-13
4266.88 1.5579e-13
4269.62 1.6042e-13
4272.36 1.688e-13
4275.1 1.5366e-13
4277.84 1.521e-13
4280.58 1.623e-13
4283.32 1.4568e-13
4286.06 1.482e-13
4288.8 1.3956e-13
4291.53 1.1742e-13
4294.27 1.3873e-13
4297.01 1.6458e-13
4299.75 1.2734e-13
4302.49 1.2367e-13
4305.23 1.2795e-13
4307.97 1.3769e-13
4310.71 1.473e-13
4313.45 1.6584e-13
4316.19 1.6458e-13
4318.92 1.7226e-13
4321.66 1.7982e-13
4324.4 2.0284e-13
4327.14 1.8389e-13
4329.88 1.7091e-13
4332.62 1.8563e-13
4335.36 1.9132e-13
4338.1 1.8867e-13
4340.84 1.5541e-13
4343.58 1.4941e-13
4346.31 1.2604e-13
4349.05 1.5529e-13
4351.79 1.5426e-13
4354.53 1.5647e-13
4357.27 1.613e-13
4360.01 2.009e-13
4362.75 1.8253e-13
4365.49 1.6954e-13
4368.23 1.5684e-13
4370.97 2.1599e-13
4373.7 1.7951e-13
4376.44 1.5493e-13
4379.18 1.8519e-13
4381.92 1.4762e-13
4384.66 1.5865e-13
4387.4 1.8201e-13
4390.14 1.6717e-13
4392.88 1.7384e-13
4395.62 1.5105e-13
4398.36 2.0417e-13
4401.09 1.7322e-13
4403.83 1.8583e-13
4406.57 1.617e-13
4409.31 2.223e-13
4412.05 1.8084e-13
4414.79 1.8797e-13
4417.53 1.9529e-13
4420.27 1.3703e-13
4423.01 1.3548e-13
4425.75 1.8992e-13
4428.48 1.5117e-13
4431.22 2.0442e-13
4433.96 1.8274e-13
4436.7 1.905e-13
4439.44 1.8448e-13
4442.18 1.6574e-13
4444.92 2.1591e-13
4447.66 2.0106e-13
4450.4 2.0522e-13
4453.13 1.5815e-13
4455.87 1.7626e-13
4458.61 1.5438e-13
4461.35 1.7877e-13
4464.09 1.504e-13
4466.83 1.9315e-13
4469.57 1.7125e-13
4472.31 1.7441e-13
4475.05 2.0079e-13
4477.79 2.0213e-13
4480.52 1.9377e-13
4483.26 1.896e-13
4486.0 2.2095e-13
4488.74 1.744e-13
4491.48 2.4773e-13
4494.22 1.9181e-13
4496.96 2.1621e-13
4499.7 1.9459e-13
4502.44 2.0947e-13
4505.18 2.3245e-13
4507.91 2.2005e-13
4510.65 2.6297e-13
4513.39 2.1085e-13
4516.13 2.3168e-13
4518.87 2.503e-13
4521.61 1.8321e-13
4524.35 2.3458e-13
4527.09 2.079e-13
4529.83 1.3443e-13
4532.57 1.9835e-13
4535.3 2.2127e-13
4538.04 1.8608e-13
4540.78 1.9738e-13
4543.52 2.1639e-13
4546.26 1.772e-13
4549.0 1.723e-13
4551.74 2.3094e-13
4554.48 1.7532e-13
4557.22 1.6227e-13
4559.96 2.082e-13
4562.69 2.5238e-13
4565.43 2.3888e-13
4568.17 2.2741e-13
4570.91 2.7441e-13
4573.65 2.525e-13
4576.39 2.1352e-13
4579.13 2.0352e-13
4581.87 1.6085e-13
4584.61 1.7621e-13
4587.34 1.6759e-13
4590.08 2.0052e-13
4592.82 2.0439e-13
4595.56 1.762e-13
4598.3 1.803e-13
4601.04 2.1915e-13
4603.78 1.9541e-13
4606.52 2.4062e-13
4609.26 2.0814e-13
4612.0 1.8327e-13
4614.73 2.2146e-13
4617.47 2.1701e-13
4620.21 2.4319e-13
4622.95 1.9291e-13
4625.69 2.1351e-13
4628.43 2.2055e-13
4631.17 2.0076e-13
4633.91 2.1225e-13
4636.65 2.4868e-13
4639.39 2.0828e-13
4642.12 2.0095e-13
4644.86 2.2637e-13
4647.6 2.1307e-13
4650.34 2.1666e-13
4653.08 1.9538e-13
4655.82 2.3184e-13
4658.56 2.2946e-13
4661.3 1.8456e-13
4664.04 2.1801e-13
4666.78 2.1475e-13
4669.51 1.9034e-13
4672.25 2.0834e-13
4674.99 1.9931e-13
4677.73 1.9842e-13
4680.47 1.6898e-13
4683.21 1.9148e-13
4685.95 2.025e-13
4688.69 2.133e-13
4691.43 1.8791e-13
4694.17 2.1643e-13
4696.9 2.1375e-13
4699.64 2.4831e-13
4702.38 1.8214e-13
4705.12 1.8482e-13
4707.86 2.1951e-13
4710.6 2.2909e-13
4713.34 2.3793e-13
4716.08 2.4647e-13
4718.82 2.4903e-13
4721.55 2.3077e-13
4724.29 2.16e-13
4727.03 2.2848e-13
4729.77 2.2025e-13
4732.51 2.1842e-13
4735.25 2.0375e-13
4737.99 1.9452e-13
4740.73 1.8347e-13
4743.47 2.1206e-13
4746.21 1.7568e-13
4748.94 1.8689e-13
4751.68 1.9705e-13
4754.42 1.9466e-13
4757.16 2.1863e-13
4759.9 2.3177e-13
4762.64 2.2876e-13
4765.38 2.08e-13
4768.12 2.2371e-13
4770.86 2.3508e-13
4773.6 2.2698e-13
4776.33 2.2463e-13
4779.07 2.2127e-13
4781.81 2.1674e-13
4784.55 2.0602e-13
4787.29 2.1066e-13
4790.03 2.0947e-13
4792.77 2.2643e-13
4795.51 2.2605e-13
4798.25 2.3574e-13
4800.99 2.265e-13
4803.72 2.1405e-13
4806.46 2.2574e-13
4809.2 2.4177e-13
4811.94 2.3207e-13
4814.68 2.3568e-13
4817.42 2.3736e-13
4820.16 2.2625e-13
4822.9 2.1391e-13
4825.64 2.0373e-13
4828.38 2.2083e-13
4831.11 2.2944e-13
4833.85 2.2835e-13
4836.59 2.129e-13
4839.33 2.0982e-13
4842.07 2.0601e-13
4844.81 1.9879e-13
4847.55 2.1468e-13
4850.29 2.2427e-13
4853.03 2.1641e-13
4855.77 2.014e-13
4858.5 1.9768e-13
4861.24 2.1351e-13
4863.98 2.2148e-13
4866.72 2.2305e-13
4869.46 2.0749e-13
4872.2 2.0188e-13
4874.94 1.7632e-13
4877.68 1.9863e-13
4880.42 2.0936e-13
4883.15 2.097e-13
4885.89 2.1408e-13
4888.63 1.9609e-13
4891.37 1.9553e-13
4894.11 2.1987e-13
4896.85 2.2407e-13
4899.59 2.1962e-13
4902.33 2.3493e-13
4905.07 2.1658e-13
4907.81 2.1228e-13
4910.54 2.1781e-13
4913.28 2.0825e-13
4916.02 2.2104e-13
4918.76 2.1541e-13
4921.5 1.9718e-13
4924.24 2.0629e-13
4926.98 2.2871e-13
4929.72 2.2477e-13
4932.46 2.1247e-13
4935.2 2.279e-13
4937.93 2.3307e-13
4940.67 2.0737e-13
4943.41 1.9626e-13
4946.15 2.0719e-13
4948.89 2.1952e-13
4951.63 2.4472e-13
4954.37 2.5324e-13
4957.11 2.407e-13
4959.85 2.0982e-13
4962.59 2.1344e-13
4965.32 2.29e-13
4968.06 2.2914e-13
4970.8 2.2799e-13
4973.54 2.3691e-13
4976.28 2.2048e-13
4979.02 2.1718e-13
4981.76 2.277e-13
4984.5 2.3206e-13
4987.24 2.1287e-13
4989.98 2.1295e-13
4992.71 2.1173e-13
4995.45 2.0553e-13
4998.19 2.12e-13
5000.93 2.1166e-13
5003.67 2.0523e-13
5006.41 2.1213e-13
5009.15 2.1516e-13
5011.89 2.3268e-13
5014.63 2.257e-13
5017.36 2.1016e-13
5020.1 2.0681e-13
5022.84 1.8811e-13
5025.58 1.8267e-13
5028.32 2.0475e-13
5031.06 2.1252e-13
5033.8 2.0574e-13
5036.54 2.0827e-13
5039.28 2.0937e-13
5042.02 2.1086e-13
5044.75 2.02e-13
5047.49 1.8872e-13
5050.23 2.0418e-13
5052.97 2.1442e-13
5055.71 2.0558e-13
5058.45 2.0603e-13
5061.19 2.2129e-13
5063.93 1.9779e-13
5066.67 1.8757e-13
5069.41 2.0627e-13
5072.14 2.0273e-13
5074.88 2.0728e-13
5077.62 2.0851e-13
5080.36 1.9028e-13
5083.1 1.9093e-13
5085.84 2.1053e-13
5088.58 2.1451e-13
5091.32 2.0243e-13
5094.06 2.0363e-13
5096.8 2.151e-13
5099.53 2.1619e-13
5102.27 2.1018e-13
5105.01 1.7794e-13
5107.75 1.7651e-13
5110.49 2.1781e-13
5113.23 2.2144e-13
5115.97 2.1493e-13
5118.71 2.3059e-13
5121.45 2.1394e-13
5124.19 2.1481e-13
5126.92 2.1132e-13
5129.66 2.0922e-13
5132.4 2.1652e-13
5135.14 2.2763e-13
5137.88 2.2093e-13
5140.62 2.017e-13
5143.36 1.9818e-13
5146.1 1.881e-13
5148.84 2.0603e-13
5151.58 2.1057e-13
5154.31 2.1903e-13
5157.05 2.0618e-13
5159.79 1.8768e-13
5162.53 1.9108e-13
5165.27 2.0163e-13
5168.01 1.9258e-13
5170.75 1.6639e-13
5173.49 1.4861e-13
5176.23 1.3116e-13
5178.96 1.3782e-13
5181.7 1.6475e-13
5184.44 1.6766e-13
5187.18 1.4389e-13
5189.92 1.6467e-13
5192.66 1.7233e-13
5195.4 1.7891e-13
5198.14 1.816e-13
5200.88 1.7078e-13
5203.62 2.0686e-13
5206.35 2.109e-13
5209.09 2.0967e-13
5211.83 2.1603e-13
5214.57 1.9874e-13
5217.31 1.9957e-13
5220.05 2.0343e-13
5222.79 2.1243e-13
5225.53 2.1618e-13
5228.27 2.0375e-13
5231.01 2.0112e-13
5233.74 1.9579e-13
5236.48 2.2424e-13
5239.22 2.3916e-13
5241.96 2.4186e-13
5244.7 2.4282e-13
5247.44 2.3121e-13
5250.18 2.1827e-13
5252.92 2.2814e-13
5255.66 2.1579e-13
5258.4 2.1755e-13
5261.13 2.3566e-13
5263.87 2.2217e-13
5266.61 2.0843e-13
5269.35 2.0608e-13
5272.09 1.7474e-13
5274.83 1.9826e-13
5277.57 2.182e-13
5280.31 2.4753e-13
5283.05 2.2088e-13
5285.79 2.0562e-13
5288.52 2.2626e-13
5291.26 2.2229e-13
5294.0 2.5039e-13
5296.74 2.2792e-13
5299.48 2.25e-13
5302.22 2.3583e-13
5304.96 2.0208e-13
5307.7 2.0246e-13
5310.44 2.2318e-13
5313.17 2.4262e-13
5315.91 2.4956e-13
5318.65 2.5094e-13
5321.39 2.261e-13
5324.13 2.0609e-13
5326.87 2.121e-13
5329.61 2.0713e-13
5332.35 2.0222e-13
5335.09 2.1348e-13
5337.83 2.1707e-13
5340.56 2.0702e-13
5343.3 2.3004e-13
5346.04 2.3862e-13
5348.78 2.2693e-13
5351.52 2.3219e-13
5354.26 2.2615e-13
5357.0 2.3538e-13
5359.74 2.3803e-13
5362.48 2.4409e-13
5365.22 2.4872e-13
5367.95 2.4071e-13
5370.69 2.3359e-13
5373.43 2.4024e-13
5376.17 2.1027e-13
5378.91 2.2379e-13
5381.65 2.3204e-13
5384.39 2.3487e-13
5387.13 2.4451e-13
5389.87 2.4416e-13
5392.61 2.4795e-13
5395.34 2.4438e-13
5398.08 2.3937e-13
5400.82 2.1269e-13
5403.56 2.0664e-13
5406.3 2.0831e-13
5409.04 2.2329e-13
5411.78 2.3421e-13
5414.52 2.276e-13
5417.26 2.3999e-13
5420.0 2.4796e-13
5422.73 2.3483e-13
5425.47 2.4702e-13
5428.21 2.154e-13
5430.95 2.1532e-13
5433.69 2.2355e-13
5436.43 2.1412e-13
5439.17 2.1731e-13
5441.91 2.2175e-13
5444.65 2.7804e-13
5447.38 2.6012e-13
5450.12 2.2519e-13
5452.86 2.3469e-13
5455.6 2.4342e-13
5458.34 2.1888e-13
5461.08 2.1553e-13
5463.82 2.4447e-13
5466.56 2.3562e-13
5469.3 2.1913e-13
5472.04 2.1728e-13
5474.77 2.2844e-13
5477.51 2.2652e-13
5480.25 2.3866e-13
5482.99 2.3501e-13
5485.73 2.314e-13
5488.47 2.3652e-13
5491.21 2.3746e-13
5493.95 2.1788e-13
5496.69 2.1024e-13
5499.43 2.3533e-13
5502.16 2.4698e-13
5504.9 2.3684e-13
5507.64 2.3338e-13
5510.38 2.1867e-13
5513.12 2.2624e-13
5515.86 1.9133e-13
5518.6 1.9504e-13
5521.34 2.2722e-13
5524.08 2.1919e-13
5526.82 2.1813e-13
5529.55 2.552e-13
5532.29 1.8365e-13
5535.03 2.2232e-13
5537.77 2.5074e-13
5540.51 2.4075e-13
5543.25 2.5239e-13
5545.99 2.0357e-13
5548.73 2.5576e-13
5551.47 2.5826e-13
5554.21 2.4245e-13
5556.94 2.2157e-13
5559.68 2.4228e-13
5562.42 2.371e-13
5565.16 2.268e-13
5567.9 2.2626e-13
5570.64 2.2203e-13
5573.38 1.7737e-13
5576.12 2.4045e-13
5578.86 2.2539e-13
5581.6 2.1197e-13
5584.33 2.2987e-13
5587.07 2.2537e-13
5589.81 2.2637e-13
5592.55 1.9957e-13
5595.29 1.9511e-13
5598.03 1.869e-13
5600.77 2.2448e-13
5603.51 2.1537e-13
5606.25 2.3048e-13
5608.98 2.0391e-13
5611.72 2.1943e-13
5614.46 2.0945e-13
5617.2 2.3994e-13
5619.94 2.2466e-13
5622.68 2.0088e-13
5625.42 2.263e-13
5628.16 2.259e-13
5630.9 1.896e-13
5633.64 2.3011e-13
5636.37 2.1249e-13
5639.11 2.2035e-13
5641.85 2.192e-13
5644.59 2.104e-13
5647.33 1.8768e-13
5650.07 2.3465e-13
5652.81 2.5009e-13
5655.55 2.4767e-13
5658.29 2.3881e-13
5661.03 2.5719e-13
5663.76 2.5409e-13
5666.5 2.3262e-13
5669.24 2.4972e-13
5671.98 2.1617e-13
5674.72 2.183e-13
5677.46 2.1624e-13
5680.2 2.2418e-13
5682.94 2.062e-13
5685.68 2.3618e-13
5688.42 2.3624e-13
5691.15 2.5069e-13
5693.89 2.3707e-13
5696.63 2.2826e-13
5699.37 2.3324e-13
5702.11 2.2416e-13
5704.85 2.3882e-13
5707.59 2.2493e-13
5710.33 2.3562e-13
5713.07 2.4843e-13
5715.81 2.1326e-13
5718.54 2.52e-13
5721.28 2.3716e-13
5724.02 2.3763e-13
5726.76 2.8021e-13
5729.5 2.9481e-13
5732.24 2.7853e-13
5734.98 2.9058e-13
5737.72 2.5851e-13
5740.46 2.6628e-13
5743.19 2.4805e-13
5745.93 2.2929e-13
5748.67 2.1417e-13
5751.41 2.83e-13
5754.15 2.497e-13
5756.89 2.302e-13
5759.63 2.1837e-13
5762.37 2.2338e-13
5765.11 2.2214e-13
5767.85 2.3729e-13
5770.58 2.3748e-13
5773.32 2.2975e-13
5776.06 2.6313e-13
5778.8 2.4484e-13
5781.54 2.221e-13
5784.28 2.2856e-13
5787.02 2.0444e-13
5789.76 1.7155e-13
5792.5 2.1657e-13
5795.24 2.376e-13
5797.97 2.4573e-13
5800.71 2.3926e-13
5803.45 2.661e-13
5806.19 2.702e-13
5808.93 2.3995e-13
5811.67 2.1229e-13
5814.41 2.7211e-13
5817.15 2.6072e-13
5819.89 2.1752e-13
5822.63 2.3327e-13
5825.36 3.0209e-13
5828.1 2.8331e-13
5830.84 2.1124e-13
5833.58 2.3598e-13
5836.32 2.4142e-13
5839.06 2.4958e-13
5841.8 2.6003e-13
5844.54 2.2287e-13
5847.28 2.4582e-13
5850.02 2.677e-13
5852.75 2.3232e-13
5855.49 2.1918e-13
5858.23 2.3699e-13
5860.97 2.3025e-13
5863.71 2.3056e-13
5866.45 1.1077e-13
5869.19 2.0101e-13
5871.93 2.6364e-13
5874.67 2.1947e-13
5877.41 2.1446e-13
5880.14 2.5356e-13
5882.88 2.7265e-13
5885.62 2.496e-13
5888.36 2.2732e-13
5891.1 2.1058e-13
5893.84 2.1173e-13
5896.58 2.1558e-13
5899.32 1.7904e-13
5902.06 1.7388e-13
5904.79 1.8751e-13
5907.53 2.14e-13
5910.27 2.2921e-13
5913.01 2.4131e-13
5915.75 2.296e-13
5918.49 2.1224e-13
5921.23 2.4138e-13
5923.97 2.5569e-13
5926.71 2.2976e-13
5929.45 2.1375e-13
5932.18 2.0889e-13
5934.92 2.1112e-13
5937.66 2.1063e-13
5940.4 2.1806e-13
5943.14 1.9811e-13
5945.88 2.3446e-13
5948.62 2.8157e-13
5951.36 2.6365e-13
5954.1 2.577e-13
5956.84 2.252e-13
5959.57 2.1787e-13
5962.31 2.3015e-13
5965.05 2.2016e-13
5967.79 2.3183e-13
5970.53 2.173e-13
5973.27 2.3337e-13
5976.01 2.5299e-13
5978.75 2.4102e-13
5981.49 1.9944e-13
5984.23 2.0871e-13
5986.96 2.4943e-13
5989.7 2.4578e-13
5992.44 2.5487e-13
5995.18 2.4196e-13
5997.92 2.3395e-13
6000.66 2.3367e-13
6003.4 2.2044e-13
6006.14 2.5592e-13
6008.88 2.5873e-13
6011.62 2.0721e-13
6014.35 2.3776e-13
6017.09 2.2727e-13
6019.83 2.2776e-13
6022.57 2.5911e-13
6025.31 2.1829e-13
6028.05 2.181e-13
6030.79 2.3993e-13
6033.53 2.4908e-13
6036.27 2.5393e-13
6039.0 2.2758e-13
6041.74 2.3681e-13
6044.48 2.3388e-13
6047.22 2.0817e-13
6049.96 2.1734e-13
6052.7 2.3025e-13
6055.44 2.0286e-13
6058.18 2.3081e-13
6060.92 2.2524e-13
6063.66 2.2306e-13
6066.39 2.4532e-13
6069.13 2.2175e-13
6071.87 2.288e-13
6074.61 2.154e-13
6077.35 2.2568e-13
6080.09 2.5792e-13
6082.83 2.2444e-13
6085.57 2.3737e-13
6088.31 2.2677e-13
6091.05 2.8479e-13
6093.78 2.0904e-13
6096.52 2.2197e-13
6099.26 2.1126e-13
6102.0 1.9661e-13
6104.74 2.2069e-13
6107.48 2.3021e-13
6110.22 2.0404e-13
6112.96 2.4086e-13
6115.7 2.2493e-13
6118.44 2.1731e-13
6121.17 2.7915e-13
6123.91 2.3879e-13
6126.65 2.0903e-13
6129.39 2.3099e-13
6132.13 2.152e-13
6134.87 2.4497e-13
6137.61 2.5094e-13
6140.35 2.7366e-13
6143.09 2.6103e-13
6145.83 2.624e-13
6148.56 2.4032e-13
6151.3 2.1968e-13
6154.04 1.967e-13
6156.78 1.9004e-13
6159.52 2.2384e-13
6162.26 2.1562e-13
6165.0 2.0024e-13
6167.74 2.1828e-13
6170.48 2.0842e-13
6173.21 2.4773e-13
6175.95 2.3321e-13
6178.69 2.3141e-13
6181.43 2.1793e-13
6184.17 2.202e-13
6186.91 2.1869e-13
6189.65 2.1234e-13
6192.39 2.1307e-13
6195.13 2.1665e-13
6197.87 2.3162e-13
6200.6 2.2769e-13
6203.34 2.3227e-13
6206.08 2.0888e-13
6208.82 2.289e-13
6211.56 2.2232e-13
6214.3 1.6045e-13
6217.04 1.6416e-13
6219.78 1.8568e-13
6222.52 2.153e-13
6225.26 2.3826e-13
6227.99 2.149e-13
6230.73 2.143e-13
6233.47 2.0938e-13
6236.21 1.8051e-13
6238.95 1.876e-13
6241.69 1.9101e-13
6244.43 1.9278e-13
6247.17 2.3305e-13
6249.91 2.3825e-13
6252.65 1.4661e-13
6255.38 1.9066e-13
6258.12 1.8782e-13
6260.86 2.012e-13
6263.6 2.6498e-13
6266.34 2.2124e-13
6269.08 2.115e-13
6271.82 2.3805e-13
6274.56 1.9677e-13
6277.3 2.1851e-13
6280.04 1.9339e-13
6282.77 2.1077e-13
6285.51 1.9976e-13
6288.25 2.3307e-13
6290.99 2.293e-13
6293.73 2.1812e-13
6296.47 2.0992e-13
6299.21 2.0552e-13
6301.95 2.1652e-13
6304.69 2.2142e-13
6307.43 2.023e-13
6310.16 2.5442e-13
6312.9 2.5569e-13
6315.64 2.3028e-13
6318.38 1.9232e-13
6321.12 1.8898e-13
6323.86 2.0826e-13
6326.6 1.8181e-13
6329.34 2.0332e-13
6332.08 2.4095e-13
6334.81 2.1931e-13
6337.55 2.4913e-13
6340.29 2.1564e-13
6343.03 2.3082e-13
6345.77 2.1336e-13
6348.51 2.2222e-13
6351.25 2.4125e-13
6353.99 1.9917e-13
6356.73 2.1207e-13
6359.47 2.2081e-13
6362.2 2.1666e-13
6364.94 2.0777e-13
6367.68 2.4575e-13
6370.42 2.2647e-13
6373.16 1.9737e-13
6375.9 2.2838e-13
6378.64 2.5109e-13
6381.38 2.2578e-13
6384.12 2.4623e-13
6386.86 2.3929e-13
6389.59 1.984e-13
6392.33 2.1019e-13
6395.07 2.5249e-13
6397.81 2.3658e-13
6400.55 2.1211e-13
6403.29 2.3286e-13
6406.03 2.1078e-13
6408.77 1.9242e-13
6411.51 2.0749e-13
6414.25 2.2851e-13
6416.98 2.33e-13
6419.72 2.3017e-13
6422.46 1.9362e-13
6425.2 2.2534e-13
6427.94 2.2521e-13
6430.68 2.2278e-13
6433.42 2.0842e-13
6436.16 2.1539e-13
6438.9 2.3496e-13
6441.64 2.4479e-13
6444.37 2.3932e-13
6447.11 2.1181e-13
6449.85 2.008e-13
6452.59 2.1852e-13
6455.33 2.0876e-13
6458.07 2.1429e-13
6460.81 2.0724e-13
6463.55 2.1858e-13
6466.29 2.1355e-13
6469.02 2.3568e-13
6471.76 2.2026e-13
6474.5 2.33e-13
6477.24 2.1677e-13
6479.98 2.0925e-13
6482.72 2.4012e-13
6485.46 2.267e-13
6488.2 2.573e-13
6490.94 2.5651e-13
6493.68 2.152e-13
6496.41 2.024e-13
6499.15 2.0147e-13
6501.89 1.9883e-13
6504.63 2.1857e-13
6507.37 2.1178e-13
6510.11 2.1844e-13
6512.85 2.403e-13
6515.59 2.3703e-13
6518.33 2.1876e-13
6521.07 2.2317e-13
6523.8 2.6109e-13
6526.54 2.5686e-13
6529.28 2.4038e-13
6532.02 2.1852e-13
6534.76 2.1908e-13
6537.5 2.8069e-13
6540.24 2.4545e-13
6542.98 2.2664e-13
6545.72 2.1158e-13
6548.46 2.1983e-13
6551.19 2.4593e-13
6553.93 2.2175e-13
6556.67 2.3054e-13
6559.41 2.2807e-13
6562.15 2.7427e-13
6564.89 2.9332e-13
6567.63 2.0876e-13
6570.37 2.4788e-13
6573.11 2.2434e-13
6575.85 2.5007e-13
6578.58 2.4626e-13
6581.32 2.4653e-13
6584.06 2.6315e-13
6586.8 2.8186e-13
6589.54 2.8454e-13
6592.28 2.8358e-13
6595.02 1.9253e-13
6597.76 2.2954e-13
6600.5 1.6615e-13
6603.23 2.1257e-13
6605.97 2.1798e-13
6608.71 2.6881e-13
6611.45 2.4462e-13
6614.19 2.2935e-13
6616.93 2.4253e-13
6619.67 2.5093e-13
6622.41 2.4938e-13
6625.15 2.4304e-13
6627.89 2.4002e-13
6630.62 2.2549e-13
6633.36 2.0438e-13
6636.1 2.1402e-13
6638.84 2.2624e-13
6641.58 2.3735e-13
6644.32 2.0496e-13
6647.06 2.2275e-13
6649.8 2.5073e-13
6652.54 2.2959e-13
6655.28 2.0276e-13
6658.01 2.1648e-13
6660.75 2.3472e-13
6663.49 2.448e-13
6666.23 2.4772e-13
6668.97 1.9733e-13
6671.71 1.9834e-13
6674.45 2.2335e-13
6677.19 2.2634e-13
6679.93 1.888e-13
6682.67 1.8304e-13
6685.4 2.1017e-13
6688.14 2.1234e-13
6690.88 2.1429e-13
6693.62 2.1922e-13
6696.36 2.6566e-13
6699.1 2.0109e-13
6701.84 2.0449e-13
6704.58 2.15e-13
6707.32 2.017e-13
6710.06 2.2404e-13
6712.79 2.4607e-13
6715.53 2.8354e-13
6718.27 2.4482e-13
6721.01 1.9037e-13
6723.75 1.9578e-13
6726.49 2.055e-13
6729.23 2.3045e-13
6731.97 1.8901e-13
6734.71 2.1793e-13
6737.45 1.93e-13
6740.18 2.749e-13
6742.92 2.5589e-13
6745.66 2.2227e-13
6748.4 2.3253e-13
6751.14 1.8645e-13
6753.88 2.0244e-13
6756.62 2.0865e-13
6759.36 2.3534e-13
6762.1 2.0142e-13
6764.83 2.4845e-13
6767.57 1.9629e-13
6770.31 1.978e-13
6773.05 2.3105e-13
6775.79 2.2797e-13
6778.53 2.2197e-13
6781.27 2.1754e-13
6784.01 1.9842e-13
6786.75 2.305e-13
6789.49 1.9547e-13
6792.22 2.3492e-13
6794.96 2.3163e-13
6797.7 2.3724e-13
6800.44 2e-13
6811.71 2.2439e-13
6827.42 2.249e-13
6843.15 2.2697e-13
6858.93 2.218e-13
6874.74 2.2179e-13
6890.59 2.1524e-13
6906.47 2.2126e-13
6922.39 2.2228e-13
6938.35 2.285e-13
6954.35 2.2639e-13
6970.38 2.3006e-13
6986.45 2.147e-13
7002.55 2.3005e-13
7018.7 2.2741e-13
7034.87 2.2583e-13
7051.09 2.3701e-13
7067.35 2.1566e-13
7083.64 2.2426e-13
7099.97 2.1073e-13
7116.34 2.1072e-13
7132.74 2.0975e-13
7149.18 2.1071e-13
7165.66 2.1265e-13
7182.18 2.0828e-13
7198.74 1.9982e-13
7215.33 2.0166e-13
7231.97 2.1508e-13
7248.64 2.1508e-13
7265.35 2.2365e-13
7282.1 2.1506e-13
7298.88 2.0396e-13
7315.71 2.1754e-13
7332.57 2.1853e-13
7349.48 2.2988e-13
7366.42 2.2776e-13
7383.4 2.3199e-13
7400.42 2.2933e-13
7417.48 2.2669e-13
7434.58 2.4012e-13
7451.72 2.293e-13
7468.89 2.2459e-13
7486.11 2.368e-13
7503.37 2.2665e-13
7520.67 2.3787e-13
7538.0 2.3514e-13
7555.38 2.3785e-13
7572.8 2.3512e-13
7590.25 2.3565e-13
7607.75 2.2817e-13
7625.29 2.24e-13
7642.87 2.3027e-13
7660.48 2.2398e-13
7678.15 2.1687e-13
7695.85 2.2089e-13
7713.58 2.1936e-13
7731.37 2.1784e-13
7749.19 2.1584e-13
7767.05 2.1434e-13
7784.96 2.1582e-13
7802.91 2.1731e-13
7820.89 2.1982e-13
7838.92 2.1235e-13
7856.99 2.1879e-13
7875.1 2.2132e-13
7893.26 2.2029e-13
7911.46 2.1726e-13
7929.69 2.1329e-13
7947.97 2.0794e-13
7966.3 2.1229e-13
7984.66 2.1773e-13
8003.06 2.1081e-13
8021.51 2.2074e-13
8040.01 2.2277e-13
8058.54 2.1971e-13
8077.11 2.1519e-13
8095.74 2.1969e-13
8114.4 2.1817e-13
8133.1 2.2273e-13
8151.85 2.1565e-13
8170.65 1.9849e-13
8189.48 2.1121e-13
8208.36 2.0735e-13
8227.28 2.2115e-13
8246.25 2.2165e-13
8265.25 2.1264e-13
8284.31 2.0779e-13
8303.41 2.1019e-13
8322.55 2.1508e-13
8341.74 2.0586e-13
8360.96 2.1755e-13
8380.24 2.1505e-13
8399.56 2.0727e-13
8418.92 2.1553e-13
8438.33 2.1752e-13
8457.78 2.0676e-13
8477.28 1.9429e-13
8496.82 2.0914e-13
8516.4 2.0865e-13
8536.04 2.0202e-13
8555.72 1.7676e-13
8575.44 2.0814e-13
8595.21 2.0718e-13
8615.02 2.0574e-13
8634.88 2.086e-13
8654.78 2.062e-13
8674.74 1.7072e-13
8694.73 2.0195e-13
8714.78 2.0523e-13
8734.87 2.1048e-13
8755.0 2.0951e-13
8775.18 2.0473e-13
8795.42 2.124e-13
8815.69 1.8078e-13
8836.01 2.0565e-13
8856.38 2.0898e-13
8876.8 1.9058e-13
8897.26 1.9956e-13
8917.77 2.0139e-13
8938.33 1.968e-13
8958.93 1.9365e-13
8979.59 1.901e-13
9000.29 1.6748e-13
9021.03 1.8321e-13
9041.83 2.0651e-13
9062.68 2.1082e-13
9083.57 2.0272e-13
9104.5 2.0131e-13
9125.49 2.0038e-13
9146.53 1.8358e-13
9167.61 1.9445e-13
9188.75 1.9715e-13
9209.93 1.9896e-13
9231.16 1.9987e-13
9252.44 1.9219e-13
9273.77 1.994e-13
9295.15 1.8608e-13
9316.58 2.0169e-13
9338.05 2.0261e-13
9359.58 2.0167e-13
9381.16 2.0166e-13
9402.78 1.9797e-13
9424.46 2.0304e-13
9446.18 1.9978e-13
9467.96 2.0443e-13
9489.79 2.0489e-13
9511.66 2.0021e-13
9533.59 2.0206e-13
9555.57 1.9836e-13
9577.59 2.0065e-13
9599.67 2.0437e-13
9621.8 2.0249e-13
9643.98 1.9878e-13
9666.21 1.9877e-13
9688.49 2.0153e-13
9710.83 1.9829e-13
9733.22 1.9602e-13
9755.65 1.9555e-13
9778.14 1.9645e-13
9800.68 1.933e-13
9823.27 1.9688e-13
9845.92 1.9778e-13
9868.62 1.9596e-13
9891.37 1.9595e-13
9914.17 1.9325e-13
9937.03 1.9503e-13
9959.93 1.9592e-13
9982.89 1.9501e-13
10028.96 1.9544e-13
10075.26 1.9274e-13
10121.77 1.9495e-13
10168.48 1.927e-13
10215.43 1.9313e-13
10286.23 1.9354e-13
10309.94 1.9264e-13
10501.62 1.8646e-13
10696.86 1.7924e-13
10895.73 1.7315e-13
11098.29 1.6536e-13
11304.63 1.6197e-13
11488.31 1.6048e-13
11701.9 1.5611e-13
11892.04 1.5046e-13
12113.13 1.4738e-13
12309.95 1.4469e-13
12509.97 1.4074e-13
12713.24 1.3754e-13
12890.1 1.341e-13
13099.55 1.3135e-13
13312.4 1.2748e-13
13497.59 1.2486e-13
13685.36 1.2287e-13
13907.73 1.1788e-13
14101.21 1.1283e-13
14297.38 1.1103e-13
14496.28 1.118e-13
14697.94 1.0775e-13
14902.41 1.0875e-13
15109.73 1.0925e-13
15284.67 1.1077e-13
15497.31 1.0976e-13
15712.9 1.08e-13
15894.85 1.0434e-13
16115.97 1.0458e-13
16302.59 1.0362e-13
16491.35 1.0196e-13
16682.31 1.0079e-13
16914.39 9.8953e-14
17110.26 9.6478e-14
17308.37 9.2775e-14
17508.79 8.9625e-14
17711.54 8.5789e-14
17916.64 8.2686e-14
18082.4 7.8783e-14
18291.79 7.6459e-14
18503.61 7.3864e-14
18717.87 7.0539e-14
18891.06 6.8459e-14
19109.81 6.7209e-14
19286.64 6.4778e-14
19509.95 6.2148e-14
19690.48 6.0039e-14
19918.49 5.8e-14
20102.78 5.6942e-14
20288.8 5.4882e-14
20476.54 5.4005e-14
20713.63 5.2533e-14
20905.3 5.1101e-14
21098.74 5.0168e-14
21293.95 4.8914e-14
21490.99 4.78e-14
21689.83 4.6177e-14
21890.53 4.523e-14
22093.09 4.3897e-14
22297.5 4.2602e-14
22503.83 4.1632e-14
22712.04 4.0405e-14
22922.2 3.6094e-14
23081.08 3.568e-14
23294.66 3.1076e-14
23510.21 2.927e-14
23673.16 2.9678e-14
23892.22 2.7191e-14
24113.27 2.6329e-14
24280.43 2.5967e-14
24505.08 2.4179e-14
24674.96 2.3737e-14
24903.25 1.9926e-14
25075.89 1.9563e-14
25307.93 1.9744e-14
25483.34 1.9563e-14
25719.15 1.9881e-14
25897.41 1.9518e-14
26076.94 1.9473e-14
26318.21 1.8942e-14
26500.65 1.8725e-14
26684.33 1.8384e-14
26869.31 1.809e-14
27117.91 1.7759e-14
27305.9 1.7355e-14
27495.16 1.7117e-14
27685.74 1.6689e-14
27877.66 1.646e-14
28070.89 1.6122e-14
28330.64 1.5828e-14
28527.0 1.5504e-14
28724.76 1.5186e-14
28923.85 1.4908e-14
29124.36 1.4603e-14
29326.23 1.4303e-14
29529.52 1.401e-14
29734.2 1.3786e-14
29871.47 1.3472e-14
30078.51 1.3257e-14
30286.99 1.3015e-14
30496.95 1.2836e-14
30708.33 1.2631e-14
30921.21 1.2429e-14
31135.53 1.223e-14
31279.27 1.2062e-14
31496.07 1.1842e-14
31714.37 1.1653e-14
31934.23 1.1493e-14
32081.62 1.1309e-14
32304.01 1.1128e-14
32527.92 1.0976e-14
32678.05 1.085e-14
32904.58 1.08e-14
33132.65 1.0627e-14
33285.61 1.029e-14
33516.32 1.0079e-14
33671.01 9.8726e-15
33904.43 9.6701e-15
34060.91 9.4718e-15
34297.03 9.3203e-15
34534.75 9.1502e-15
34694.14 8.9625e-15
34934.65 8.7989e-15
35095.89 8.6383e-15
35339.19 8.4612e-15
35502.29 8.3067e-15
35666.15 8.1551e-15
35913.4 7.9879e-15
36079.15 7.8601e-15
36329.23 7.6989e-15
36496.94 7.541e-15
36665.39 7.4034e-15
36919.52 7.2349e-15
37089.97 7.1028e-15
37261.15 6.9892e-15
37519.46 6.8144e-15
37692.63 6.7209e-15
37866.6 6.5983e-15
38129.1 6.4778e-15
38305.08 6.3596e-15
38481.87 6.2435e-15
38659.53 6.1155e-15
38927.48 6.0039e-15
39107.15 5.9079e-15
39287.69 5.8e-15
39469.02 5.668e-15
39742.59 5.5646e-15
39926.06 5.4379e-15
40110.34 5.3633e-15
40295.47 5.2775e-15
40481.49 5.1693e-15
40668.34 5.0749e-15
40856.04 4.9938e-15
41139.26 4.9139e-15
41329.14 4.8354e-15
41519.89 4.7471e-15
41711.57 4.6605e-15
41904.09 4.5754e-15
42097.5 4.4919e-15
42291.79 4.4405e-15
42487.04 4.3594e-15
42683.13 4.2897e-15
42880.14 4.1156e-15
43078.1 3.9303e-15
43276.92 3.9213e-15
43476.66 3.7534e-15
43677.38 3.668e-15
43878.97 3.6011e-15
44081.49 3.4868e-15
44284.94 3.4232e-15
44489.39 3.3684e-15
44694.73 3.2767e-15
44901.01 3.2466e-15
45108.3 3.1947e-15
45316.5 3.1292e-15
45525.65 3.1005e-15
45735.83 3.0579e-15
45946.92 2.9678e-15
46052.83 2.9609e-15
46265.38 2.9136e-15
46478.97 2.8736e-15
46693.49 2.8604e-15
46909.0 2.8082e-15
47125.56 2.7633e-15
47343.07 2.757e-15
47452.2 2.6942e-15
47671.21 2.6695e-15
47891.29 2.6389e-15
48112.33 2.5789e-15
48334.39 2.5848e-15
48445.8 2.526e-15
48669.45 2.4856e-15
48894.08 2.4515e-15
49119.75 2.4123e-15
49346.52 2.3957e-15
49460.26 2.352e-15
49688.55 2.3412e-15
49917.88 2.2945e-15
50148.33 2.2708e-15
50263.92 2.241e-15
50495.92 2.2077e-15
50728.98 2.185e-15
50845.97 2.1762e-15
50963.17 2.1575e-15
51080.65 2.139e-15
51198.39 2.1255e-15
51316.41 2.1169e-15
51434.7 2.0988e-15
51553.31 2.0807e-15
51672.15 2.0724e-15
51791.25 2.0641e-15
51910.64 2.0417e-15
52030.29 2.0288e-15
52150.23 2.016e-15
52270.43 1.9987e-15
52390.98 1.9862e-15
52511.75 1.9782e-15
52632.79 1.9749e-15
52754.11 1.967e-15
52875.71 1.9456e-15
52997.6 1.9289e-15
53119.82 1.9168e-15
53242.26 1.9091e-15
53364.99 1.8971e-15
53488.0 1.8852e-15
53611.29 1.8777e-15
53734.87 1.8659e-15
53858.73 1.8542e-15
53982.94 1.8425e-15
54107.38 1.8352e-15
54232.1 1.8195e-15
54357.11 1.8039e-15
54482.4 1.7967e-15
54607.99 1.7854e-15
54733.86 1.7701e-15
54860.09 1.759e-15
54986.55 1.748e-15
55113.29 1.733e-15
55240.33 1.7301e-15
55367.67 1.7272e-15
55495.29 1.7085e-15
55623.27 1.6939e-15
55751.49 1.691e-15
55880.0 1.6805e-15
56008.81 1.6661e-15
56137.91 1.6595e-15
56267.32 1.6491e-15
56397.02 1.635e-15
56527.08 1.6323e-15
56657.38 1.622e-15
56787.98 1.6119e-15
56918.87 1.5981e-15
57050.08 1.5918e-15
57181.58 1.5891e-15
57313.45 1.5792e-15
57445.56 1.5729e-15
57577.98 1.5631e-15
57710.7 1.5533e-15
57843.73 1.5472e-15
57977.06 1.5411e-15
58110.71 1.5314e-15
58244.72 1.5254e-15
58378.97 1.5193e-15
58513.54 1.5168e-15
58648.42 1.5074e-15
58783.61 1.5014e-15
58919.11 1.4989e-15
59007.57 1.4176e-15
59316.18 1.5246e-15
59624.79 1.7724e-15
59933.4 1.5053e-15
60242.02 1.8313e-15
60550.62 1.6512e-15
60859.23 2.0244e-15
61167.86 1.594e-15
61476.46 1.6165e-15
61785.07 1.7098e-15
62093.69 1.6303e-15
62402.3 1.5849e-15
62710.91 1.8294e-15
63019.52 1.8681e-15
63328.13 1.529e-15
63636.75 1.6134e-15
63945.36 1.4953e-15
64253.96 1.0281e-15
64562.59 1.0449e-15
64871.19 1.4289e-15
65179.8 1.7108e-15
65488.42 1.2131e-15
65797.03 1.2559e-15
66105.64 1.264e-15
66414.26 1.1334e-15
66722.86 8.7226e-16
67031.47 1.1189e-15
67340.09 1.1172e-15
67648.7 1.0536e-15
67957.32 1.0634e-15
68265.93 1.5791e-15
68574.54 1.2946e-15
68883.16 1.298e-15
69191.76 9.3917e-16
69500.38 7.9777e-16
69808.99 1.003e-15
70117.6 8.9566e-16
70426.21 9.3177e-16
70734.82 1.0338e-15
71043.43 1.025e-15
71352.05 1.0753e-15
71660.65 1.0769e-15
71969.28 1.043e-15
72277.88 1.1784e-15
72586.49 1.1256e-15
72895.12 9.9008e-16
73203.72 1.3698e-15
73512.33 1.1722e-15
73820.95 9.2195e-16
74129.56 7.8807e-16
74438.17 1.0991e-15
74746.78 8.2077e-16
75035.2 8.2266e-16
75653.64 1.3417e-15
76272.09 1.0034e-15
76890.54 7.5497e-16
77509.0 6.609e-16
78127.45 1.2031e-15
78745.92 7.6846e-16
79364.37 6.2693e-16
79982.82 1.2472e-15
80601.28 1.0839e-15
81219.73 8.7699e-16
81838.18 8.0753e-16
82456.64 6.377e-16
83075.09 6.6023e-16
83693.55 6.2274e-16
84312.0 7.0365e-16
84930.46 6.6339e-16
85548.91 8.2926e-16
86167.37 6.7596e-16
86785.81 6.0096e-16
87404.27 6.3091e-16
88022.73 6.5046e-16
88641.18 6.1995e-16
89259.63 5.5069e-16
89878.08 4.9191e-16
90496.53 5.7603e-16
91115.0 6.581e-16
91733.45 6.1612e-16
92351.91 7.2882e-16
92970.36 5.5818e-16
93588.81 6.2337e-16
94207.26 6.7113e-16
94825.71 6.1027e-16
95444.18 6.2281e-16
96062.63 7.8055e-16
96681.08 7.9703e-16
97299.54 7.336e-16
97918.0 6.3297e-16
98536.45 5.5748e-16
99154.9 5.9171e-16
99773.32 5.692e-16
100391.82 5.7339e-16
101010.23 4.8862e-16
101628.75 5.7258e-16
102247.16 4.3621e-16
102865.66 4.6112e-16
103484.09 4.8336e-16
104102.5 4.803e-16
104721.0 5.2634e-16
105339.41 5.1153e-16
105957.93 4.7101e-16
106576.34 4.5756e-16
107194.76 4.5787e-16
107813.27 4.1812e-16
108431.69 4.549e-16
109050.19 4.0348e-16
109668.6 4.6237e-16
110287.11 4.9583e-16
110905.53 4.8173e-16
111523.94 6.37e-16
112142.45 7.6744e-16
112760.86 7.6206e-16
113379.37 6.9057e-16
113997.79 5.9137e-16
114616.3 5.4187e-16
115234.71 4.5127e-16
115853.12 4.781e-16
116471.64 4.5558e-16
117090.05 4.2136e-16
117708.55 3.8818e-16
118326.96 4.288e-16
118945.48 4.3468e-16
119563.89 4.2718e-16
120182.3 4.1214e-16
120800.82 4.458e-16
121419.23 4.4055e-16
122037.74 4.0746e-16
122656.15 4.2213e-16
123274.57 4.6371e-16
123893.08 4.1943e-16
124511.49 3.6442e-16
125130.0 3.9427e-16
125748.42 4.0148e-16
126366.92 3.607e-16
126985.34 4.0869e-16
127603.75 4.6576e-16
128222.26 4.4398e-16
128840.67 3.3648e-16
129459.19 3.5037e-16
130077.6 2.9692e-16
130696.01 3.1763e-16
131314.52 2.856e-16
131932.94 3.1678e-16
132551.45 3.0288e-16
133169.85 2.0707e-16
133788.36 2.6976e-16
134406.78 2.8664e-16
135025.2 2.8333e-16
135643.71 2.4546e-16
136262.11 2.5712e-16
136880.63 2.6238e-16
137499.04 2.8147e-16
138117.56 2.8757e-16
138735.96 2.6814e-16
139354.38 2.724e-16
139972.89 2.6211e-16
140591.31 2.6292e-16
141209.8 2.8405e-16
141828.22 2.2179e-16
142094.45 2.3938e-16
143007.68 2.2853e-16
143921.01 2.3014e-16
144834.24 2.2146e-16
145747.45 2.0914e-16
146660.78 2.1721e-16
147574.01 2.1435e-16
148487.23 2.1355e-16
149400.46 2.1348e-16
150313.79 2.0699e-16
151227.02 2.0548e-16
152140.24 2.1228e-16
153053.56 2.0584e-16
153966.79 2.1482e-16
154880.01 2.586e-16
155793.24 2.7871e-16
156706.57 2.3711e-16
157619.8 2.1961e-16
158533.02 2.2856e-16
159446.34 2.3106e-16
160359.58 2.2525e-16
161272.79 2.2314e-16
162186.12 2.42e-16
163099.35 2.4278e-16
164012.57 2.5889e-16
164925.8 2.5989e-16
165839.14 2.5349e-16
166752.34 2.5173e-16
167665.58 2.5358e-16
168578.81 2.6226e-16
169492.13 3.4851e-16
170405.37 4.586e-16
171318.6 3.449e-16
172231.92 2.5684e-16
173145.14 2.3862e-16
174058.37 2.3608e-16
174971.7 2.261e-16
175884.91 2.2302e-16
176798.15 2.0053e-16
177711.36 1.9732e-16
178624.69 1.975e-16
179537.92 1.9036e-16
180451.14 1.8428e-16
181364.46 1.8363e-16
182277.7 1.7825e-16
183190.91 1.8181e-16
184104.24 1.7519e-16
185017.47 1.691e-16
185930.7 1.7423e-16
186843.92 1.8945e-16
187757.25 1.8227e-16
188670.48 1.6668e-16
189583.7 1.656e-16
190497.04 1.6016e-16
191410.27 1.6056e-16
192323.47 1.5772e-16
193236.7 1.4367e-16
194150.04 1.4358e-16
195063.26 1.3865e-16
195976.49 1.3465e-16
196889.82 1.4693e-16
197803.04 1.3483e-16
198716.27 1.2663e-16
199629.5 1.3185e-16
200542.83 1.2734e-16
201456.04 1.2516e-16
202369.27 1.1857e-16
203282.6 1.2126e-16
204195.82 1.2195e-16
204378.29 1.1559e-16
206136.53 1.1659e-16
207895.84 1.1057e-16
209656.05 1.111e-16
211417.36 1.0915e-16
213179.68 1.06e-16
214943.08 9.7199e-17
216707.37 9.3621e-17
218472.77 1.017e-16
220239.18 9.2251e-17
222006.66 8.831e-17
223775.16 8.1839e-17
225544.63 8.6237e-17
227315.2 8.7332e-17
229086.77 8.3235e-17
230859.35 8.7595e-17
232633.01 8.4149e-17
234407.68 8.0431e-17
236183.43 7.3226e-17
237960.28 7.3551e-17
239738.13 7.62e-17
241516.97 7.363e-17
243296.92 7.3332e-17
245077.85 7.0129e-17
246859.99 6.7318e-17
248643.02 6.4685e-17
250427.13 6.7675e-17
252212.35 6.43e-17
253998.66 6.3209e-17
255785.97 6.407e-17
257574.37 6.8547e-17
259363.88 8.2018e-17
261154.47 6.8714e-17
262946.07 5.669e-17
264738.74 5.5768e-17
266532.55 5.6301e-17
268327.3 5.4542e-17
270123.29 5.4936e-17
271920.25 5.4671e-17
273718.33 5.226e-17
275517.5 5.0029e-17
277317.76 5.1387e-17
279119.1 5.3516e-17
280921.54 5.4076e-17
282725.1 6.1852e-17
284529.74 4.9848e-17
286335.48 4.6443e-17
288142.3 4.3334e-17
289950.22 4.4451e-17
291759.25 4.5914e-17
293569.38 4.5364e-17
295380.59 4.2507e-17
297192.99 4.4352e-17
299006.5 4.466e-17
300820.98 4.4232e-17
302636.68 4.3089e-17
304453.46 3.952e-17
306271.46 4.2951e-17
308090.46 4.1614e-17
309910.64 3.8385e-17
311732.0 3.9186e-17
313554.38 3.9113e-17
315377.95 4.1123e-17
317202.67 4.1443e-17
319028.42 3.8696e-17
320855.39 4.1014e-17
322683.56 4.0856e-17
324512.77 4.1543e-17
326343.09 3.8089e-17
328174.66 3.7959e-17
330007.38 4.2426e-17
331841.19 4.1189e-17
333676.12 5.0918e-17
335512.23 5.6227e-17
337349.56 4.5097e-17
339188.04 3.8679e-17
341027.64 3.9281e-17
342868.36 3.2206e-17
344710.32 3.5368e-17
346553.44 5.0135e-17
348397.71 7.7701e-17
