# col1 col2
# An Atlas of Galaxy Spectral Energy Distributions from the Ultraviolet to the Mid-Infrared
# Brown et al. (2014)
# http://dx.doi.org/10.5072/03/529D3551F0117
# 
# Column 1 : Restframe Wavelength (Angstrom)
# Column 2 : Flux per unit wavelength (ergs/s/cm^2/Angstrom)
# Column 3 : Observed wavelength (Angstrom)
# Column 4 : Source (0 = model, 1 = Optical Spectrum, 2 = Akari, 3 = Spitzer IRS)
# 
102.01 5.6132e-24
103.91 7.8562e-24
106.08 1.1148e-23
108.06 1.6077e-23
110.06 2.5835e-23
113.93 4.6688e-23
117.94 7.8561e-23
120.96 3.4057e-22
124.92 5.2025e-22
126.95 6.1974e-22
128.13 6.8899e-22
131.11 8.7742e-22
132.02 1.087e-21
133.86 1.2624e-21
136.98 1.8206e-21
139.85 2.245e-21
143.1 7.198e-21
147.11 2.1788e-20
150.89 2.6928e-20
155.11 3.3513e-20
159.09 4.1515e-20
162.05 4.8329e-20
165.82 5.9595e-20
170.08 7.1484e-20
172.84 8.2075e-20
176.87 9.7322e-20
180.16 1.1021e-19
181.82 1.1946e-19
186.06 1.397e-19
190.83 1.6874e-19
193.93 1.8976e-19
197.99 2.1738e-19
202.14 2.4958e-19
204.95 2.7619e-19
210.21 3.0847e-19
216.1 3.8744e-19
220.11 4.3773e-19
223.18 4.7012e-19
226.8 5.2992e-19
229.96 8.5548e-19
234.23 1.5248e-18
240.24 2.0569e-18
245.84 2.1292e-18
252.14 2.4672e-18
256.83 2.2398e-18
259.81 2.6743e-18
264.03 2.9526e-18
268.94 3.1348e-18
273.94 3.3205e-18
279.03 3.5092e-18
284.22 3.7086e-18
290.17 3.7689e-18
296.24 4.0758e-18
301.06 4.2287e-18
308.07 4.5626e-18
318.16 5.0724e-18
327.83 5.4854e-18
337.79 5.8642e-18
348.06 6.226e-18
356.98 6.5646e-18
366.14 6.9536e-18
374.67 7.2646e-18
385.17 7.3656e-18
395.05 7.9288e-18
405.18 8.3217e-18
413.67 8.5745e-18
422.33 8.7339e-18
430.18 8.9168e-18
441.21 9.2728e-18
451.49 9.4452e-18
459.88 9.5986e-18
469.51 9.8222e-18
480.45 1.0074e-17
490.51 1.0121e-17
499.63 1.0428e-17
506.58 1.0428e-17
512.45 1.1148e-17
519.58 1.1303e-17
530.46 1.1408e-17
540.32 1.1277e-17
550.36 1.1674e-17
560.59 1.2224e-17
569.7 1.2712e-17
580.3 1.2624e-17
589.72 1.325e-17
600.69 1.3219e-17
610.45 1.2624e-17
620.37 1.4495e-17
630.45 1.4798e-17
640.69 1.5039e-17
649.6 1.5675e-17
658.64 1.604e-17
664.74 1.6566e-17
675.54 1.6719e-17
684.93 1.649e-17
694.46 1.8673e-17
705.75 1.8164e-17
715.57 2.0101e-17
725.52 2.0664e-17
735.61 2.1194e-17
745.85 2.2814e-17
754.48 2.3835e-17
764.98 2.4055e-17
775.62 2.6437e-17
784.6 2.7747e-17
795.52 2.8854e-17
804.73 3.0006e-17
815.92 3.0989e-17
825.37 3.3436e-17
834.93 2.8524e-17
844.6 3.5092e-17
854.38 3.6075e-17
864.27 3.8566e-17
874.28 4.123e-17
884.4 4.4587e-17
894.64 4.7012e-17
905.0 4.6904e-17
915.48 7.3656e-17
923.95 5.1193e-16
934.65 1.1434e-15
945.47 2.2501e-15
954.22 3.3282e-15
965.27 3.591e-15
974.2 5.2025e-16
985.48 2.7747e-15
994.6 3.1857e-15
1006.12 5.1075e-15
1015.43 5.0841e-15
1024.82 2.2091e-15
1034.31 3.3513e-15
1043.88 7.0829e-15
1055.96 7.0018e-15
1065.73 5.2627e-15
1075.6 6.5495e-15
1085.55 4.9228e-15
1095.59 7.0666e-15
1105.73 6.8267e-15
1115.96 6.4746e-15
1126.29 5.7572e-15
1134.09 7.8201e-15
1144.59 7.0341e-15
1155.18 7.695e-15
1165.87 7.9838e-15
1173.95 5.2506e-15
1184.81 7.8201e-15
1195.77 4.9569e-15
1204.06 3.3282e-15
1215.2 2.5073e-15
1223.63 5.3482e-15
1234.95 8.6539e-15
1246.38 9.6429e-15
1255.02 9.0826e-15
1263.72 7.6069e-15
1275.41 1.0428e-14
1284.25 1.1097e-14
1296.13 8.2644e-15
1305.12 8.151e-15
1314.16 1.087e-14
1326.32 1.0356e-14
1335.52 8.8758e-15
1344.77 1.12e-14
1354.1 1.0845e-14
1363.48 9.4669e-15
1376.1 1.0167e-14
1385.64 1.0309e-14
1395.24 8.9374e-15
1404.91 9.3586e-15
1414.65 9.5106e-15
1424.46 9.9589e-15
1434.33 9.8676e-15
1440.95 1.0549e-14
1447.6 1.082e-14
1454.28 1.0452e-14
1464.36 9.5106e-15
1474.51 9.5545e-15
1484.74 9.8676e-15
1495.03 1.0121e-14
1505.39 9.5106e-15
1512.34 8.2834e-15
1515.83 9.0409e-15
1526.33 8.6938e-15
1533.38 7.3996e-15
1544.01 8.4569e-15
1554.71 7.9471e-15
1565.49 8.0577e-15
1576.34 8.6738e-15
1583.61 9.2514e-15
1594.59 9.4888e-15
1605.64 9.3371e-15
1616.77 9.4452e-15
1624.24 8.8554e-15
1635.5 9.5545e-15
1646.83 9.7546e-15
1654.43 8.9168e-15
1665.9 9.8903e-15
1673.59 8.6141e-15
1677.45 9.9589e-15
1685.19 1.0549e-14
1696.87 9.8449e-15
1704.7 9.4018e-15
1716.52 8.8351e-15
1724.44 8.8147e-15
1736.4 9.5326e-15
1744.41 9.2941e-15
1756.5 1.0074e-14
1764.61 9.1035e-15
1776.84 9.4018e-15
1785.04 9.6208e-15
1793.28 1.0452e-14
1805.72 1.038e-14
1814.05 9.4452e-15
1826.62 9.7322e-15
1835.06 9.2941e-15
1843.53 8.4569e-15
1856.3 8.4764e-15
1864.87 8.8147e-15
1873.48 9.7322e-15
1886.47 8.8758e-15
1895.17 8.5155e-15
1903.92 9.1035e-15
1917.12 8.7138e-15
1925.97 8.5943e-15
1934.86 8.8554e-15
1943.79 9.3156e-15
1952.76 8.6938e-15
1966.3 9.6875e-15
1975.37 9.9818e-15
1984.49 9.4018e-15
1993.65 9.1245e-15
2002.85 9.4452e-15
2016.74 9.0617e-15
2026.05 9.5766e-15
2035.4 9.0201e-15
2044.79 9.4888e-15
2054.23 9.0409e-15
2063.71 9.0617e-15
2073.24 9.7996e-15
2078.02 9.3801e-15
2082.81 9.8222e-15
2097.25 9.2514e-15
2106.93 9.2941e-15
2116.65 9.4234e-15
2126.42 9.5545e-15
2136.24 8.7945e-15
2146.1 9.1455e-15
2156.0 9.5545e-15
2165.95 9.2089e-15
2175.95 9.1245e-15
2186.0 9.0201e-15
2196.09 9.4888e-15
2206.22 9.1878e-15
2216.41 8.6539e-15
2226.64 8.3793e-15
2236.91 9.1035e-15
2247.24 8.674e-15
2252.42 8.2077e-15
2262.82 8.4378e-15
2273.26 8.7144e-15
2283.75 9.0624e-15
2294.29 8.4967e-15
2304.88 8.5361e-15
2315.52 8.0587e-15
2326.21 6.1132e-15
2336.95 7.3499e-15
2342.34 7.0678e-15
2353.15 7.8215e-15
2364.01 7.0355e-15
2374.92 7.3165e-15
2385.88 6.6882e-15
2396.9 7.233e-15
2402.42 6.9075e-15
2413.51 7.1504e-15
2424.65 7.7507e-15
2435.84 7.4533e-15
2447.09 7.9681e-15
2452.73 7.8769e-15
2464.05 7.769e-15
2475.42 7.4366e-15
2486.85 7.5576e-15
2492.58 7.1678e-15
2504.09 8.1357e-15
2515.64 7.0049e-15
2527.26 6.8613e-15
2533.08 7.0699e-15
2544.77 6.957e-15
2556.52 7.7166e-15
2562.41 7.3694e-15
2574.24 7.9331e-15
2586.12 7.7705e-15
2592.09 7.6112e-15
2604.05 7.2855e-15
2616.07 7.1692e-15
2622.1 7.6291e-15
2634.2 8.1749e-15
2646.36 9.1304e-15
2652.46 9.6493e-15
2664.71 8.289e-15
2677.01 8.8209e-15
2683.18 8.9231e-15
2695.56 8.3085e-15
2708.0 8.7404e-15
2714.25 8.0452e-15
2726.77 7.9167e-15
2733.06 8.4635e-15
2745.68 7.0074e-15
2752.0 7.304e-15
2764.71 7.7548e-15
2777.47 8.1579e-15
2783.87 7.4402e-15
2796.72 5.7888e-15
2803.17 6.2747e-15
2816.11 8.028e-15
2822.6 8.7823e-15
2835.63 8.4843e-15
2842.16 8.0839e-15
2855.28 7.4582e-15
2861.87 8.8641e-15
2875.07 9.1547e-15
2881.7 8.9259e-15
2895.0 9.0711e-15
2908.37 1.0249e-14
2928.53 9.698e-15
2948.83 9.4775e-15
2969.27 9.8109e-15
2989.85 9.8338e-15
3010.57 1.0063e-14
3031.44 1.011e-14
3052.45 1.018e-14
3066.54 1.0346e-14
3087.8 1.0442e-14
3109.2 1.0612e-14
3130.76 1.0419e-14
3152.46 1.0419e-14
3167.01 1.0613e-14
3188.96 9.8823e-15
3211.07 1.0468e-14
3233.32 9.658e-15
3248.25 1.0862e-14
3270.76 1.1559e-14
3293.44 1.1401e-14
3308.64 1.1322e-14
3323.91 1.1349e-14
3331.57 1.156e-14
3339.25 1.0714e-14
3346.95 1.2105e-14
3354.67 1.1168e-14
3362.4 1.0471e-14
3370.15 1.0715e-14
3377.92 1.1402e-14
3385.71 1.1066e-14
3393.51 1.1803e-14
3401.33 1.2647e-14
3409.17 1.1272e-14
3417.03 1.1092e-14
3424.91 1.2219e-14
3432.81 1.2706e-14
3440.72 1.1968e-14
3448.65 1.0815e-14
3456.6 1.1273e-14
3464.57 1.0569e-14
3472.56 1.1859e-14
3480.56 1.0766e-14
3488.58 1.1457e-14
3496.63 1.117e-14
3504.69 1.1997e-14
3512.77 1.159e-14
3520.86 1.222e-14
3528.98 1.057e-14
3537.12 1.2109e-14
3545.27 1.2391e-14
3553.44 1.2709e-14
3561.63 1.2278e-14
3569.84 1.0892e-14
3575.27 8.8901e-15
3577.95 1.0334e-14
3580.62 6.6987e-15
3583.29 9.8249e-15
3585.97 1.0692e-14
3588.64 9.2145e-15
3591.31 1.1015e-14
3593.98 8.2009e-15
3596.66 7.9229e-15
3599.33 1.2521e-14
3602.0 1.1591e-14
3604.68 1.1962e-14
3607.35 1.0799e-14
3610.02 9.6647e-15
3612.69 8.4695e-15
3615.37 1.0837e-14
3618.04 1.0377e-14
3620.71 1.121e-14
3623.39 1.1e-14
3626.06 1.0323e-14
3628.73 1.3336e-14
3631.4 1.264e-14
3634.08 1.0418e-14
3636.75 1.2967e-14
3639.42 1.1704e-14
3642.1 1.0372e-14
3644.77 1.5223e-14
3647.44 1.068e-14
3650.12 1.265e-14
3652.79 1.3779e-14
3655.46 1.3384e-14
3658.13 1.0741e-14
3660.81 9.7195e-15
3663.48 1.1714e-14
3666.15 1.3621e-14
3668.83 1.4297e-14
3671.5 1.1722e-14
3674.17 1.2293e-14
3676.84 1.472e-14
3679.52 1.183e-14
3682.19 1.0711e-14
3684.86 9.7455e-15
3687.54 8.1935e-15
3690.21 9.3946e-15
3692.88 1.0537e-14
3695.55 1.1667e-14
3698.23 1.2832e-14
3700.9 1.3077e-14
3703.57 1.4652e-14
3706.25 1.3289e-14
3708.92 1.139e-14
3711.59 1.2471e-14
3714.26 1.3597e-14
3716.94 1.116e-14
3719.61 1.4064e-14
3722.28 1.3867e-14
3724.96 1.9843e-14
3727.63 2.4647e-14
3730.3 2.6377e-14
3732.97 2.6763e-14
3735.65 2.2795e-14
3738.32 2.0539e-14
3740.99 1.5378e-14
3743.67 1.4183e-14
3746.34 1.26e-14
3749.01 1.2077e-14
3751.69 1.2573e-14
3754.36 1.2305e-14
3757.03 1.3943e-14
3759.7 1.666e-14
3762.38 1.3423e-14
3765.05 1.3664e-14
3767.72 1.4784e-14
3770.4 1.2947e-14
3773.07 1.2649e-14
3775.74 1.3205e-14
3778.41 1.2762e-14
3781.09 1.2074e-14
3783.76 1.6288e-14
3786.43 1.7421e-14
3789.11 1.6404e-14
3791.78 1.4809e-14
3794.45 1.3265e-14
3797.12 1.1843e-14
3799.8 1.546e-14
3802.47 1.423e-14
3805.14 1.2787e-14
3807.82 1.4587e-14
3810.49 1.4643e-14
3813.16 1.378e-14
3815.83 1.5144e-14
3818.51 1.4661e-14
3821.18 1.4943e-14
3823.85 1.4966e-14
3826.53 1.3527e-14
3829.2 1.2481e-14
3831.87 1.2329e-14
3834.54 1.0867e-14
3837.22 1.0276e-14
3839.89 1.1778e-14
3842.56 1.2678e-14
3845.24 1.1811e-14
3847.91 1.1325e-14
3850.58 1.2326e-14
3853.26 1.482e-14
3855.93 1.554e-14
3858.6 1.608e-14
3861.27 1.4908e-14
3863.95 1.5373e-14
3866.62 1.6453e-14
3869.29 1.6049e-14
3871.97 1.4073e-14
3874.64 1.4928e-14
3877.31 1.5577e-14
3879.98 1.3603e-14
3882.66 1.6104e-14
3885.33 1.4491e-14
3888.0 1.269e-14
3890.68 1.4394e-14
3893.35 1.5455e-14
3896.02 1.5839e-14
3898.69 1.6717e-14
3901.37 1.7113e-14
3904.04 1.6821e-14
3906.71 1.7651e-14
3909.39 1.7279e-14
3912.06 1.9326e-14
3914.73 1.8183e-14
3917.4 1.8484e-14
3920.08 1.7983e-14
3922.75 1.7017e-14
3925.42 1.5855e-14
3928.1 1.6425e-14
3930.77 1.3591e-14
3933.44 1.3908e-14
3936.11 1.3218e-14
3938.79 1.2428e-14
3941.46 1.3976e-14
3944.13 1.61e-14
3946.81 1.6917e-14
3949.48 1.7067e-14
3952.15 1.7691e-14
3954.83 1.6795e-14
3957.5 1.7898e-14
3960.17 1.8264e-14
3962.84 1.5233e-14
3965.52 1.2667e-14
3968.19 1.2807e-14
3970.86 1.1847e-14
3973.54 1.2337e-14
3976.21 1.2894e-14
3978.88 1.3395e-14
3981.55 1.5758e-14
3984.23 1.6186e-14
3986.9 1.5396e-14
3989.57 1.6117e-14
3992.25 1.6958e-14
3994.92 1.8432e-14
3997.59 1.9926e-14
4000.26 1.9548e-14
4002.94 1.8641e-14
4005.61 1.9695e-14
4008.28 2.0972e-14
4010.96 2.0572e-14
4013.63 2.1071e-14
4016.3 2.015e-14
4018.97 1.9425e-14
4021.65 2.0487e-14
4024.32 2.047e-14
4026.99 2.0516e-14
4029.67 2.0304e-14
4032.34 2.1354e-14
4035.01 2.113e-14
4037.69 1.9174e-14
4040.36 1.9998e-14
4043.03 2.085e-14
4045.7 1.8962e-14
4048.38 1.9124e-14
4051.05 2.0678e-14
4053.72 2.0204e-14
4056.4 1.9324e-14
4059.07 1.9522e-14
4061.74 1.9693e-14
4064.41 2.0103e-14
4067.09 2.0926e-14
4069.76 2.0472e-14
4072.43 2.0939e-14
4075.11 2.0272e-14
4077.78 2.1591e-14
4080.45 2.1022e-14
4083.12 2.1172e-14
4085.8 2.204e-14
4088.47 2.0855e-14
4091.14 2.01e-14
4093.82 2.0172e-14
4096.49 2.0313e-14
4099.16 1.9529e-14
4101.83 1.8755e-14
4104.51 1.8499e-14
4107.18 1.9656e-14
4109.85 1.9432e-14
4112.53 2.0067e-14
4115.2 2.0577e-14
4117.87 2.081e-14
4120.54 2.0974e-14
4123.22 1.9942e-14
4125.89 1.9045e-14
4128.56 1.9968e-14
4131.24 2.3121e-14
4133.91 2.0424e-14
4136.58 2.0047e-14
4139.26 2.0376e-14
4141.93 2.0987e-14
4144.6 1.9457e-14
4147.27 1.8749e-14
4149.95 2.0795e-14
4152.62 2.0254e-14
4155.29 1.8986e-14
4157.97 1.9885e-14
4160.64 2.0464e-14
4163.31 2.0914e-14
4165.98 2.0584e-14
4168.66 1.954e-14
4171.33 2.1221e-14
4174.0 1.8741e-14
4176.68 1.9249e-14
4179.35 1.8597e-14
4182.02 2.0019e-14
4184.69 1.9883e-14
4187.37 2.0189e-14
4190.04 2.0879e-14
4192.71 2.088e-14
4195.39 2.1038e-14
4198.06 2.0674e-14
4200.73 2.1202e-14
4203.4 1.9871e-14
4206.08 2.0899e-14
4208.75 2.0744e-14
4211.42 2.2669e-14
4214.1 2.1721e-14
4216.77 2.1573e-14
4219.44 2.1036e-14
4222.11 2.0615e-14
4224.79 2.0749e-14
4227.46 2.0809e-14
4230.13 1.8806e-14
4232.81 1.978e-14
4235.48 1.9324e-14
4238.15 2.034e-14
4240.83 2.0638e-14
4243.5 2.2022e-14
4246.17 2.0096e-14
4248.84 2.2027e-14
4251.52 1.9876e-14
4254.19 2.0928e-14
4256.86 2.0846e-14
4259.54 1.9858e-14
4262.21 2.0412e-14
4264.88 2.1528e-14
4267.55 2.0993e-14
4270.23 2.1029e-14
4272.9 2.1259e-14
4275.57 2.0824e-14
4278.25 2.238e-14
4280.92 1.9867e-14
4283.59 2.022e-14
4286.26 1.9861e-14
4288.94 1.9969e-14
4291.61 1.9899e-14
4294.28 2.035e-14
4296.96 2.118e-14
4299.63 2.0275e-14
4302.3 1.9722e-14
4304.97 1.7413e-14
4307.65 1.8055e-14
4310.32 1.8812e-14
4312.99 1.8825e-14
4315.67 1.9599e-14
4318.34 2.0495e-14
4321.01 2.1628e-14
4323.68 2.1589e-14
4326.36 2.0202e-14
4329.03 2.0953e-14
4331.7 2.1492e-14
4334.38 2.0183e-14
4337.05 2.092e-14
4339.72 2.1934e-14
4342.4 2.2871e-14
4345.07 2.3555e-14
4347.74 2.2454e-14
4350.41 2.2948e-14
4353.09 2.2044e-14
4355.76 2.2044e-14
4358.43 2.1752e-14
4361.11 2.2962e-14
4363.78 2.1843e-14
4366.45 2.1878e-14
4369.12 2.2845e-14
4371.8 2.4072e-14
4374.47 2.3366e-14
4377.14 2.1469e-14
4379.82 2.0483e-14
4382.49 2.1366e-14
4385.16 2.0587e-14
4387.83 2.1018e-14
4390.51 2.0793e-14
4393.18 2.1473e-14
4395.85 2.1458e-14
4398.53 2.1804e-14
4401.2 2.0917e-14
4403.87 2.1862e-14
4406.54 2.1338e-14
4409.22 2.2216e-14
4411.89 2.0499e-14
4414.56 2.1869e-14
4417.24 2.2601e-14
4419.91 2.2131e-14
4422.58 2.3643e-14
4425.25 2.2695e-14
4427.93 2.2839e-14
4430.6 2.2897e-14
4433.27 2.3173e-14
4435.95 2.2572e-14
4438.62 2.3305e-14
4441.29 2.3443e-14
4443.97 2.3507e-14
4446.64 2.4069e-14
4449.31 2.3716e-14
4451.98 2.2786e-14
4454.66 2.3187e-14
4457.33 2.4418e-14
4460.0 2.2814e-14
4462.68 2.2516e-14
4465.35 2.2528e-14
4468.02 2.2409e-14
4470.69 2.2774e-14
4473.37 2.4554e-14
4476.04 2.3308e-14
4478.71 2.3845e-14
4481.39 2.4015e-14
4484.06 2.4595e-14
4486.73 2.4156e-14
4489.4 2.4269e-14
4492.08 2.4754e-14
4494.75 2.4694e-14
4497.42 2.4762e-14
4500.1 2.519e-14
4502.77 2.5821e-14
4505.44 2.6115e-14
4508.11 2.6309e-14
4510.79 2.6187e-14
4513.46 2.5102e-14
4516.13 2.4988e-14
4518.81 2.501e-14
4521.48 2.4942e-14
4524.15 2.3723e-14
4526.82 2.3637e-14
4529.5 2.435e-14
4532.17 2.4166e-14
4534.84 2.3513e-14
4537.52 2.3973e-14
4540.19 2.3864e-14
4542.86 2.4096e-14
4545.54 2.3942e-14
4548.21 2.439e-14
4550.88 2.448e-14
4553.55 2.4239e-14
4556.23 2.4835e-14
4558.9 2.4602e-14
4561.57 2.4562e-14
4564.25 2.5539e-14
4566.92 2.4903e-14
4569.59 2.5113e-14
4572.26 2.4596e-14
4574.94 2.4794e-14
4577.61 2.5133e-14
4580.28 2.5622e-14
4582.96 2.589e-14
4585.63 2.5541e-14
4588.3 2.5537e-14
4590.97 2.515e-14
4593.65 2.4808e-14
4596.32 2.5828e-14
4598.99 2.625e-14
4601.67 2.6345e-14
4604.34 2.6708e-14
4607.01 2.6264e-14
4609.68 2.6662e-14
4612.36 2.6811e-14
4615.03 2.7837e-14
4617.7 2.7379e-14
4620.38 2.7007e-14
4623.05 2.6857e-14
4625.72 2.6533e-14
4628.39 2.6945e-14
4631.07 2.699e-14
4633.74 2.6898e-14
4636.41 2.6572e-14
4639.09 2.6317e-14
4641.76 2.5842e-14
4644.43 2.5737e-14
4647.11 2.534e-14
4649.78 2.5456e-14
4652.45 2.677e-14
4655.12 2.6247e-14
4657.8 2.6718e-14
4660.47 2.6612e-14
4663.14 2.648e-14
4665.82 2.554e-14
4668.49 2.4822e-14
4671.16 2.4626e-14
4673.83 2.483e-14
4676.51 2.4707e-14
4679.18 2.4473e-14
4681.85 2.4029e-14
4684.53 2.4267e-14
4687.2 2.4917e-14
4689.87 2.4381e-14
4692.54 2.555e-14
4695.22 2.4747e-14
4697.89 2.511e-14
4700.56 2.4954e-14
4703.24 2.3669e-14
4705.91 2.4013e-14
4708.58 2.4523e-14
4711.25 2.3772e-14
4713.93 2.4301e-14
4716.6 2.4846e-14
4719.27 2.5008e-14
4721.95 2.6048e-14
4724.62 2.5248e-14
4727.29 2.4726e-14
4729.96 2.492e-14
4732.64 2.4577e-14
4735.31 2.5343e-14
4737.98 2.5854e-14
4740.66 2.4609e-14
4743.33 2.4173e-14
4746.0 2.501e-14
4748.68 2.6532e-14
4751.35 2.5315e-14
4754.02 2.4922e-14
4756.69 2.4663e-14
4759.37 2.5989e-14
4762.04 2.5225e-14
4764.71 2.5625e-14
4767.39 2.4737e-14
4770.06 2.3425e-14
4772.73 2.4593e-14
4775.4 2.4908e-14
4778.08 2.5069e-14
4780.75 2.4913e-14
4783.42 2.5398e-14
4786.1 2.5156e-14
4788.77 2.5907e-14
4791.44 2.5625e-14
4794.11 2.6466e-14
4796.79 2.6443e-14
4799.46 2.6054e-14
4802.13 2.5376e-14
4804.81 2.5714e-14
4807.48 2.5656e-14
4810.15 2.5648e-14
4812.82 2.537e-14
4815.5 2.4912e-14
4818.17 2.5283e-14
4820.84 2.587e-14
4823.52 2.6507e-14
4826.19 2.5203e-14
4828.86 2.5818e-14
4831.53 2.6286e-14
4834.21 2.5102e-14
4836.88 2.5536e-14
4839.55 2.4618e-14
4842.23 2.4212e-14
4844.9 2.4973e-14
4847.57 2.4262e-14
4850.25 2.3194e-14
4852.92 2.4087e-14
4855.59 2.5821e-14
4858.26 2.6577e-14
4860.94 2.8508e-14
4863.61 2.9557e-14
4866.28 2.8128e-14
4868.96 2.8908e-14
4871.63 2.8819e-14
4874.3 2.6424e-14
4876.97 2.5082e-14
4879.65 2.4772e-14
4882.32 2.4088e-14
4884.99 2.459e-14
4887.67 2.4031e-14
4890.34 2.3871e-14
4893.01 2.3687e-14
4895.68 2.4074e-14
4898.36 2.4746e-14
4901.03 2.4386e-14
4903.7 2.5001e-14
4906.38 2.5209e-14
4909.05 2.5089e-14
4911.72 2.4721e-14
4914.39 2.5502e-14
4917.07 2.6093e-14
4919.74 2.4496e-14
4922.41 2.3984e-14
4925.09 2.5185e-14
4927.76 2.4107e-14
4930.43 2.5206e-14
4933.1 2.4277e-14
4935.78 2.4918e-14
4938.45 2.512e-14
4941.12 2.53e-14
4943.8 2.6155e-14
4946.47 2.5885e-14
4949.14 2.6645e-14
4951.82 2.6533e-14
4954.49 2.7064e-14
4957.16 2.753e-14
4959.83 2.7455e-14
4962.51 2.6541e-14
4965.18 2.7783e-14
4967.85 2.6593e-14
4970.53 2.7113e-14
4973.2 2.6949e-14
4975.87 2.6452e-14
4978.54 2.4485e-14
4981.22 2.4598e-14
4983.89 2.5033e-14
4986.56 2.528e-14
4989.24 2.5368e-14
4991.91 2.5436e-14
4994.58 2.4495e-14
4997.25 2.4041e-14
4999.93 2.4765e-14
5002.6 2.7169e-14
5005.27 2.8735e-14
5007.95 3.254e-14
5010.62 3.2277e-14
5013.29 3.1382e-14
5015.96 3.0642e-14
5018.64 2.9697e-14
5021.31 2.8503e-14
5023.98 2.6829e-14
5026.66 2.433e-14
5029.33 2.501e-14
5032.0 2.4513e-14
5034.67 2.4121e-14
5037.35 2.4667e-14
5040.02 2.4237e-14
5042.69 2.4928e-14
5045.37 2.3778e-14
5048.04 2.5272e-14
5050.71 2.4519e-14
5053.39 2.5321e-14
5056.06 2.4852e-14
5058.73 2.4547e-14
5061.4 2.5126e-14
5064.08 2.5993e-14
5066.75 2.6083e-14
5069.42 2.4621e-14
5072.1 2.4955e-14
5074.77 2.4567e-14
5077.44 2.4684e-14
5080.11 2.5612e-14
5082.79 2.5325e-14
5085.46 2.518e-14
5088.13 2.4248e-14
5090.81 2.5132e-14
5093.48 2.4236e-14
5096.15 2.4436e-14
5098.82 2.46e-14
5101.5 2.5523e-14
5104.17 2.424e-14
5106.84 2.4151e-14
5109.52 2.4047e-14
5112.19 2.4389e-14
5114.86 2.4062e-14
5117.53 2.3072e-14
5120.21 2.4746e-14
5122.88 2.4397e-14
5125.55 2.4193e-14
5128.23 2.519e-14
5130.9 2.444e-14
5133.57 2.3024e-14
5136.24 2.3526e-14
5138.92 2.3825e-14
5141.59 2.4357e-14
5144.26 2.3657e-14
5146.94 2.3728e-14
5149.61 2.3075e-14
5152.28 2.4047e-14
5154.96 2.409e-14
5157.63 2.4765e-14
5160.3 2.3416e-14
5162.97 2.3126e-14
5165.65 2.181e-14
5168.32 2.2448e-14
5170.99 2.1459e-14
5173.67 2.0845e-14
5176.34 2.113e-14
5179.01 2.0465e-14
5181.68 2.1295e-14
5184.36 2.2479e-14
5187.03 2.161e-14
5189.7 2.2867e-14
5192.38 2.3414e-14
5195.05 2.3501e-14
5197.72 2.5306e-14
5200.39 2.3678e-14
5203.07 2.5013e-14
5205.74 2.4709e-14
5208.41 2.4136e-14
5211.09 2.4814e-14
5213.76 2.3934e-14
5216.43 2.4997e-14
5219.1 2.3703e-14
5221.78 2.3583e-14
5224.45 2.4712e-14
5227.12 2.4919e-14
5229.8 2.4481e-14
5232.47 2.475e-14
5235.14 2.472e-14
5237.81 2.5444e-14
5240.49 2.5324e-14
5243.16 2.5186e-14
5245.83 2.5654e-14
5248.51 2.4905e-14
5251.18 2.5815e-14
5253.85 2.5213e-14
5256.53 2.4881e-14
5259.2 2.5803e-14
5261.87 2.5308e-14
5264.54 2.431e-14
5267.22 2.2693e-14
5269.89 2.3428e-14
5272.56 2.424e-14
5275.24 2.4428e-14
5277.91 2.3916e-14
5280.58 2.4099e-14
5283.25 2.551e-14
5285.93 2.5592e-14
5288.6 2.5567e-14
5291.27 2.5179e-14
5293.95 2.5586e-14
5296.62 2.6398e-14
5299.29 2.5261e-14
5301.96 2.6173e-14
5304.64 2.7618e-14
5307.31 2.5965e-14
5309.98 2.7164e-14
5312.66 2.5906e-14
5315.33 2.6424e-14
5318.0 2.6994e-14
5320.67 2.5722e-14
5323.35 2.5448e-14
5326.02 2.5162e-14
5328.69 2.5554e-14
5331.37 2.4658e-14
5334.04 2.39e-14
5336.71 2.343e-14
5339.38 2.4475e-14
5342.06 2.5918e-14
5344.73 2.6912e-14
5347.4 2.5977e-14
5350.08 2.5843e-14
5352.75 2.6309e-14
5355.42 2.6671e-14
5358.1 2.6707e-14
5360.77 2.636e-14
5363.44 2.5856e-14
5366.11 2.686e-14
5368.79 2.7174e-14
5371.46 2.6292e-14
5374.13 2.5584e-14
5376.81 2.5264e-14
5379.48 2.6423e-14
5382.15 2.5873e-14
5384.82 2.5828e-14
5387.5 2.6574e-14
5390.17 2.6166e-14
5392.84 2.5175e-14
5395.52 2.5857e-14
5398.19 2.4604e-14
5400.86 2.3412e-14
5403.53 2.4828e-14
5406.21 2.5038e-14
5408.88 2.3647e-14
5411.55 2.4197e-14
5414.23 2.3428e-14
5416.9 2.5541e-14
5419.57 2.6614e-14
5422.24 2.5602e-14
5424.92 2.63e-14
5427.59 2.6045e-14
5430.26 2.4887e-14
5432.94 2.4314e-14
5435.61 2.5849e-14
5438.28 2.5821e-14
5440.95 2.4294e-14
5443.63 2.7268e-14
5446.3 2.6243e-14
5448.97 2.4721e-14
5451.65 2.5876e-14
5454.32 2.5703e-14
5456.99 2.5216e-14
5459.67 2.4991e-14
5462.34 2.4625e-14
5465.01 2.5169e-14
5467.68 2.4999e-14
5470.36 2.4705e-14
5473.03 2.5537e-14
5475.7 2.6293e-14
5478.38 2.6293e-14
5481.05 2.6045e-14
5483.72 2.555e-14
5486.39 2.4739e-14
5489.07 2.5099e-14
5491.74 2.5555e-14
5494.41 2.602e-14
5497.09 2.5885e-14
5499.76 2.5287e-14
5502.43 2.4964e-14
5505.1 2.606e-14
5507.78 2.5981e-14
5510.45 2.5622e-14
5513.12 2.6366e-14
5515.8 2.587e-14
5518.47 2.4468e-14
5521.14 2.4193e-14
5523.81 2.4618e-14
5526.49 2.5123e-14
5529.16 2.5384e-14
5531.83 2.6295e-14
5534.51 2.6221e-14
5537.18 2.5803e-14
5539.85 2.5781e-14
5542.52 2.5568e-14
5545.2 2.5762e-14
5547.87 2.6088e-14
5550.54 2.6379e-14
5553.22 2.6815e-14
5555.89 2.6166e-14
5558.56 2.4977e-14
5561.24 2.5748e-14
5563.91 2.6184e-14
5566.58 2.4679e-14
5569.25 2.5354e-14
5571.93 2.5874e-14
5574.6 2.5556e-14
5577.27 2.5082e-14
5579.95 2.482e-14
5582.62 2.5246e-14
5585.29 2.5404e-14
5587.96 2.385e-14
5590.64 2.3838e-14
5593.31 2.4153e-14
5595.98 2.4627e-14
5598.66 2.445e-14
5601.33 2.4824e-14
5604.0 2.5491e-14
5606.67 2.5723e-14
5609.35 2.608e-14
5612.02 2.512e-14
5614.69 2.4484e-14
5617.37 2.5691e-14
5620.04 2.5669e-14
5622.71 2.4863e-14
5625.38 2.5523e-14
5628.06 2.5072e-14
5630.73 2.5583e-14
5633.4 2.5209e-14
5636.08 2.5467e-14
5638.75 2.5132e-14
5641.42 2.5347e-14
5644.09 2.6185e-14
5646.77 2.5802e-14
5649.44 2.5141e-14
5652.11 2.5956e-14
5654.79 2.5264e-14
5657.46 2.5097e-14
5660.13 2.5783e-14
5662.81 2.5727e-14
5665.48 2.647e-14
5668.15 2.6316e-14
5670.82 2.5499e-14
5673.5 2.6395e-14
5676.17 2.6531e-14
5678.84 2.6246e-14
5681.52 2.6216e-14
5684.19 2.6574e-14
5686.86 2.62e-14
5689.53 2.5923e-14
5692.21 2.5989e-14
5694.88 2.5433e-14
5697.55 2.6267e-14
5700.23 2.5599e-14
5702.9 2.5871e-14
5705.57 2.5678e-14
5708.24 2.6376e-14
5710.92 2.4589e-14
5713.59 2.4759e-14
5716.26 2.444e-14
5718.94 2.5298e-14
5721.61 2.6871e-14
5724.28 2.5605e-14
5726.95 2.6693e-14
5729.63 2.7265e-14
5732.3 2.6164e-14
5734.97 2.6936e-14
5737.65 2.5857e-14
5740.32 2.6062e-14
5742.99 2.5706e-14
5745.66 2.6986e-14
5748.34 2.6176e-14
5751.01 2.6971e-14
5753.68 2.6928e-14
5756.36 2.585e-14
5759.03 2.6426e-14
5761.7 2.4954e-14
5764.38 2.686e-14
5767.05 2.7235e-14
5769.72 2.6533e-14
5772.39 2.5523e-14
5775.07 2.4762e-14
5777.74 2.6289e-14
5780.41 2.5413e-14
5783.09 2.5159e-14
5785.76 2.4024e-14
5788.43 2.5265e-14
5791.1 2.5907e-14
5793.78 2.7535e-14
5796.45 2.5614e-14
5799.12 2.7416e-14
5801.8 2.6475e-14
5804.47 2.7749e-14
5807.14 2.7579e-14
5809.81 2.7201e-14
5812.49 2.6593e-14
5815.16 2.7013e-14
5817.83 2.5113e-14
5820.51 2.7599e-14
5823.18 2.5479e-14
5825.85 2.5805e-14
5828.52 2.6306e-14
5831.2 2.6808e-14
5833.87 2.6412e-14
5836.54 2.7759e-14
5839.22 2.7948e-14
5841.89 2.7084e-14
5844.56 2.616e-14
5847.23 2.5544e-14
5849.91 2.6171e-14
5852.58 2.5051e-14
5855.25 2.5609e-14
5857.93 2.6028e-14
5860.6 2.5874e-14
5863.27 2.5938e-14
5865.95 2.6289e-14
5868.62 2.6394e-14
5871.29 2.6706e-14
5873.96 2.7031e-14
5876.64 2.7195e-14
5879.31 2.6779e-14
5881.98 2.6053e-14
5884.66 2.4299e-14
5887.33 2.4741e-14
5890.0 2.3969e-14
5892.67 2.3001e-14
5895.35 2.3742e-14
5898.02 2.2396e-14
5900.69 2.308e-14
5903.37 2.3306e-14
5906.04 2.3993e-14
5908.71 2.4574e-14
5911.38 2.5644e-14
5914.06 2.5513e-14
5916.73 2.6001e-14
5919.4 2.5332e-14
5922.08 2.4577e-14
5924.75 2.4823e-14
5927.42 2.5016e-14
5930.09 2.557e-14
5932.77 2.6036e-14
5935.44 2.5882e-14
5938.11 2.6676e-14
5940.79 2.6477e-14
5943.46 2.541e-14
5946.13 2.6298e-14
5948.8 2.5856e-14
5951.48 2.5318e-14
5954.15 2.5525e-14
5956.82 2.5404e-14
5959.5 2.5033e-14
5962.17 2.6092e-14
5964.84 2.6522e-14
5967.52 2.6186e-14
5970.19 2.6409e-14
5972.86 2.562e-14
5975.53 2.5517e-14
5978.21 2.6252e-14
5980.88 2.7221e-14
5983.55 2.664e-14
5986.23 2.4725e-14
5988.9 2.5713e-14
5991.57 2.6168e-14
5994.24 2.5516e-14
5996.92 2.5402e-14
5999.59 2.5185e-14
6002.26 2.5884e-14
6004.94 2.696e-14
6007.61 2.6548e-14
6010.28 2.5608e-14
6012.95 2.4483e-14
6015.63 2.4633e-14
6018.3 2.5851e-14
6020.97 2.7135e-14
6023.65 2.4896e-14
6026.32 2.5516e-14
6028.99 2.5508e-14
6031.66 2.7631e-14
6034.34 2.5906e-14
6037.01 2.5429e-14
6039.68 2.7444e-14
6042.36 2.6052e-14
6045.03 2.6136e-14
6047.7 2.5781e-14
6050.37 2.7113e-14
6053.05 2.554e-14
6055.72 2.5508e-14
6058.39 2.5255e-14
6061.07 2.7022e-14
6063.74 2.6994e-14
6066.41 2.6952e-14
6069.09 2.4992e-14
6071.76 2.5228e-14
6074.43 2.7195e-14
6077.1 2.682e-14
6079.78 2.5434e-14
6082.45 2.6613e-14
6085.12 2.7695e-14
6087.8 2.6274e-14
6090.47 2.5423e-14
6093.14 2.5487e-14
6095.81 2.651e-14
6098.49 2.6389e-14
6101.16 2.6475e-14
6103.83 2.7149e-14
6106.51 2.5425e-14
6109.18 2.6041e-14
6111.85 2.7097e-14
6114.52 2.7025e-14
6117.2 2.5381e-14
6119.87 2.6568e-14
6122.54 2.7259e-14
6125.22 2.5337e-14
6127.89 2.6617e-14
6130.56 2.5004e-14
6133.23 2.5967e-14
6135.91 2.6485e-14
6138.58 2.5921e-14
6141.25 2.5249e-14
6143.93 2.5358e-14
6146.6 2.4967e-14
6149.27 2.558e-14
6151.94 2.6014e-14
6154.62 2.5689e-14
6157.29 2.4665e-14
6159.96 2.4831e-14
6162.64 2.435e-14
6165.31 2.4059e-14
6167.98 2.4771e-14
6170.66 2.3904e-14
6173.33 2.4454e-14
6176.0 2.5126e-14
6178.67 2.5632e-14
6181.35 2.5078e-14
6184.02 2.5458e-14
6186.69 2.487e-14
6189.37 2.5747e-14
6192.04 2.5391e-14
6194.71 2.6238e-14
6197.38 2.4649e-14
6200.06 2.5095e-14
6202.73 2.4728e-14
6205.4 2.6187e-14
6208.08 2.6285e-14
6210.75 2.5972e-14
6213.42 2.5407e-14
6216.09 2.4718e-14
6218.77 2.43e-14
6221.44 2.4431e-14
6224.11 2.5373e-14
6226.79 2.4714e-14
6229.46 2.3814e-14
6232.13 2.4254e-14
6234.8 2.4414e-14
6237.48 2.4003e-14
6240.15 2.4559e-14
6242.82 2.4132e-14
6245.5 2.4876e-14
6248.17 2.5532e-14
6250.84 2.4686e-14
6253.52 2.3432e-14
6256.19 2.4316e-14
6258.86 2.4904e-14
6261.53 2.3759e-14
6264.21 2.4965e-14
6266.88 2.5645e-14
6269.55 2.5224e-14
6272.23 2.5664e-14
6274.9 2.5524e-14
6277.57 2.5843e-14
6280.24 2.4918e-14
6282.92 2.5545e-14
6285.59 2.4949e-14
6288.26 2.5117e-14
6290.94 2.4882e-14
6293.61 2.6652e-14
6296.28 2.4642e-14
6298.95 2.6556e-14
6301.63 2.4952e-14
6304.3 2.6678e-14
6306.97 2.4455e-14
6309.65 2.651e-14
6312.32 2.5242e-14
6314.99 2.7457e-14
6317.66 2.758e-14
6320.34 2.6677e-14
6323.01 2.4891e-14
6325.68 2.3358e-14
6328.36 2.4992e-14
6331.03 2.4559e-14
6333.7 2.488e-14
6336.37 2.4921e-14
6339.05 2.6264e-14
6341.72 2.5183e-14
6344.39 2.4349e-14
6347.07 2.4608e-14
6349.74 2.4497e-14
6352.41 2.3615e-14
6355.09 2.3701e-14
6357.76 2.425e-14
6360.43 2.4573e-14
6363.1 2.3082e-14
6365.78 2.4531e-14
6368.45 2.5575e-14
6371.12 2.5575e-14
6373.8 2.4556e-14
6376.47 2.5323e-14
6379.14 2.4251e-14
6381.81 2.4587e-14
6384.49 2.4881e-14
6387.16 2.4327e-14
6389.83 2.4253e-14
6392.51 2.3071e-14
6395.18 2.4584e-14
6397.85 2.4714e-14
6400.52 2.4842e-14
6403.2 2.47e-14
6405.87 2.3523e-14
6408.54 2.4571e-14
6411.22 2.4761e-14
6413.89 2.5476e-14
6416.56 2.5147e-14
6419.23 2.4807e-14
6421.91 2.5056e-14
6424.58 2.4763e-14
6427.25 2.4948e-14
6429.93 2.5427e-14
6432.6 2.5134e-14
6435.27 2.511e-14
6437.94 2.5072e-14
6440.62 2.5837e-14
6443.29 2.549e-14
6445.96 2.4704e-14
6448.64 2.5607e-14
6451.31 2.4913e-14
6453.98 2.5075e-14
6456.66 2.6325e-14
6459.33 2.6071e-14
6462.0 2.6343e-14
6464.67 2.6416e-14
6467.35 2.7304e-14
6470.02 2.6013e-14
6472.69 2.5838e-14
6475.37 2.5032e-14
6478.04 2.5669e-14
6480.71 2.6052e-14
6483.38 2.543e-14
6486.06 2.6357e-14
6488.73 2.5931e-14
6491.4 2.6385e-14
6494.08 2.4173e-14
6496.75 2.6133e-14
6499.42 2.4265e-14
6502.09 2.575e-14
6504.77 2.4186e-14
6507.44 2.4282e-14
6510.11 2.5451e-14
6512.79 2.3394e-14
6515.46 2.435e-14
6518.13 2.6056e-14
6520.8 2.7481e-14
6523.48 2.6323e-14
6526.15 2.66e-14
6528.82 2.6489e-14
6531.5 2.6551e-14
6534.17 2.651e-14
6536.84 2.66e-14
6539.51 2.6909e-14
6542.19 2.6779e-14
6544.86 2.8544e-14
6547.53 3.0662e-14
6550.21 3.162e-14
6552.88 3.4029e-14
6555.55 4.0238e-14
6558.23 4.8053e-14
6560.9 5.0242e-14
6563.57 5.2524e-14
6566.24 5.4735e-14
6568.92 5.6566e-14
6571.59 5.7078e-14
6574.26 5.6856e-14
6576.94 5.7249e-14
6579.61 5.3116e-14
6582.28 4.7619e-14
6584.95 4.3234e-14
6587.63 4.2989e-14
6590.3 4.1334e-14
6592.97 3.932e-14
6595.65 3.8689e-14
6598.32 3.5719e-14
6600.99 3.1436e-14
6603.66 2.8709e-14
6606.34 2.731e-14
6609.01 2.547e-14
6611.68 2.6121e-14
6614.36 2.7033e-14
6617.03 2.7785e-14
6619.7 2.6324e-14
6622.37 2.7107e-14
6625.05 2.6349e-14
6627.72 2.7068e-14
6630.39 2.7545e-14
6633.07 2.6082e-14
6635.74 2.6436e-14
6638.41 2.7351e-14
6647.36 2.5286e-14
6662.68 2.5169e-14
6678.04 2.5285e-14
6693.44 2.5053e-14
6708.87 2.4823e-14
6724.33 2.3651e-14
6739.84 2.4765e-14
6755.37 2.4089e-14
6770.94 2.4821e-14
6786.55 2.5282e-14
6802.2 2.4367e-14
6817.88 2.4763e-14
6833.59 2.4877e-14
6849.35 2.3866e-14
6865.14 2.3756e-14
6880.96 2.4309e-14
6896.83 2.4365e-14
6912.72 2.4421e-14
6928.66 2.4141e-14
6944.63 2.4874e-14
6960.64 2.4363e-14
6976.69 2.5335e-14
6992.77 2.5335e-14
7008.89 2.4644e-14
7025.05 2.4138e-14
7041.24 2.5159e-14
7057.47 2.5686e-14
7073.74 2.3479e-14
7090.05 2.4192e-14
7106.39 2.3805e-14
7122.77 2.3587e-14
7139.19 2.2421e-14
7155.65 2.2472e-14
7172.15 2.2266e-14
7188.68 2.2317e-14
7205.25 2.2784e-14
7221.86 2.3476e-14
7238.51 2.3912e-14
7255.2 2.4412e-14
7271.92 2.3746e-14
7288.69 2.3583e-14
7305.49 2.4467e-14
7322.33 2.4636e-14
7339.21 2.4523e-14
7356.13 2.5036e-14
7373.09 2.4749e-14
7390.08 2.4977e-14
7407.12 2.4862e-14
7424.19 2.4352e-14
7441.31 2.544e-14
7458.46 2.5499e-14
7475.65 2.5557e-14
7492.89 2.5615e-14
7510.16 2.5733e-14
7527.47 2.6031e-14
7544.83 2.597e-14
7562.22 2.5614e-14
7579.65 2.4973e-14
7597.12 2.4743e-14
7614.64 2.4459e-14
7632.19 2.4629e-14
7649.78 2.4685e-14
7667.42 2.3682e-14
7685.09 2.4178e-14
7702.81 2.3627e-14
7720.57 2.3302e-14
7738.37 2.3735e-14
7756.2 2.2355e-14
7774.09 2.368e-14
7792.01 2.3625e-14
7809.97 2.3624e-14
7827.97 2.4174e-14
7846.02 2.3733e-14
7864.1 2.4007e-14
7882.23 2.3677e-14
7900.4 2.3677e-14
7918.61 2.3084e-14
7936.87 2.3137e-14
7955.17 2.2714e-14
7973.5 2.3404e-14
7991.88 2.3893e-14
8010.31 2.3403e-14
8028.77 2.4169e-14
8047.28 2.4561e-14
8065.83 2.4561e-14
8084.43 2.3727e-14
8103.06 2.2868e-14
8121.74 2.3945e-14
8140.47 2.3508e-14
8159.23 2.3453e-14
8178.04 2.3184e-14
8196.89 2.2813e-14
8215.79 2.3943e-14
8234.73 2.2345e-14
8253.71 2.45e-14
8272.74 2.4499e-14
8291.81 2.3558e-14
8310.92 2.3288e-14
8330.08 2.2653e-14
8349.28 2.3234e-14
8368.53 2.372e-14
8387.82 2.334e-14
8407.16 2.3286e-14
8426.54 2.3555e-14
8445.96 2.2084e-14
8465.43 2.2702e-14
8484.95 2.3284e-14
8504.51 2.1186e-14
8524.11 2.158e-14
8543.76 2.2235e-14
8563.46 2.27e-14
8583.2 2.2804e-14
8602.99 2.2543e-14
8622.82 2.2233e-14
8642.69 2.2856e-14
8662.62 2.213e-14
8682.59 2.1329e-14
8702.6 2.2231e-14
8722.67 2.2488e-14
8742.77 2.2853e-14
8762.93 2.2179e-14
8783.13 2.2384e-14
8803.38 2.2694e-14
8823.67 2.333e-14
8844.01 2.2956e-14
8864.4 2.285e-14
8884.83 2.1423e-14
8905.31 2.2125e-14
8925.84 2.2329e-14
8946.42 2.2639e-14
8967.04 2.2123e-14
8987.71 2.1769e-14
9008.43 2.0409e-14
9029.2 2.0981e-14
9050.02 2.3217e-14
9070.88 2.1617e-14
9091.78 2.1867e-14
9112.74 2.2479e-14
9133.75 2.2949e-14
9154.81 2.1665e-14
9175.91 2.1665e-14
9197.07 2.2067e-14
9218.27 2.1073e-14
9239.51 2.0217e-14
9260.82 2.1713e-14
9282.16 2.2321e-14
9303.56 2.1072e-14
9325.01 2.232e-14
9346.51 2.2268e-14
9368.05 2.1911e-14
9389.64 2.2267e-14
9411.29 2.181e-14
9432.99 2.242e-14
9454.73 2.2112e-14
9476.53 2.2679e-14
9498.37 2.2678e-14
9520.27 2.2111e-14
9542.22 2.1458e-14
9564.21 2.211e-14
9586.26 2.2572e-14
9608.36 2.2313e-14
9630.51 2.2416e-14
9652.71 2.2108e-14
9674.96 2.2107e-14
9697.26 2.2414e-14
9719.62 2.2005e-14
9742.02 2.1702e-14
9764.48 2.1802e-14
9786.99 2.1552e-14
9809.56 2.2053e-14
9832.17 2.1851e-14
9854.83 2.2001e-14
9877.55 2.185e-14
9900.32 2.1849e-14
9923.14 2.1899e-14
9946.02 2.1949e-14
9968.95 2.1999e-14
9991.93 2.1897e-14
10014.96 2.1947e-14
10084.38 2.1645e-14
10130.93 2.2199e-14
10177.69 2.2045e-14
10224.66 2.2299e-14
10271.87 2.2453e-14
10295.54 2.24e-14
10511.12 2.1688e-14
10706.54 2.0664e-14
10905.6 2.0147e-14
11108.34 1.9108e-14
11288.84 1.902e-14
11498.71 1.9152e-14
11712.49 1.8716e-14
11902.8 1.775e-14
12096.2 1.775e-14
12292.76 1.7588e-14
12492.5 1.6991e-14
12695.49 1.6642e-14
12901.77 1.6376e-14
13111.41 1.6151e-14
13293.81 1.5603e-14
13509.81 1.5213e-14
13697.75 1.497e-14
13888.31 1.4329e-14
14113.98 1.359e-14
14310.32 1.3434e-14
14509.38 1.3558e-14
14711.23 1.3068e-14
14915.89 1.3342e-14
15088.61 1.3465e-14
15298.51 1.3779e-14
15511.34 1.3652e-14
15690.96 1.3372e-14
15909.24 1.2859e-14
16093.45 1.2859e-14
16317.33 1.283e-14
16506.28 1.2712e-14
16697.42 1.2741e-14
16890.75 1.2653e-14
17086.34 1.248e-14
17284.2 1.2001e-14
17484.34 1.162e-14
17686.81 1.1097e-14
17891.6 1.0598e-14
18098.78 1.0005e-14
18308.35 9.7322e-15
18520.36 9.4018e-15
18691.71 8.9168e-15
18908.16 8.7138e-15
19083.12 8.634e-15
19304.08 8.3987e-15
19482.71 8.0762e-15
19708.31 7.8021e-15
19890.65 7.5546e-15
20120.98 7.4509e-15
20307.17 7.2312e-15
20495.05 7.1814e-15
20684.7 7.0341e-15
20876.08 6.9217e-15
21117.82 6.8424e-15
21313.23 6.7175e-15
21510.42 6.5949e-15
21709.47 6.4004e-15
21910.35 6.2981e-15
22113.07 6.1406e-15
22317.69 5.9732e-15
22524.18 5.8507e-15
22680.32 5.6913e-15
22890.19 5.1193e-15
23101.98 5.0607e-15
23315.75 4.4382e-15
23477.35 4.1707e-15
23694.6 4.219e-15
23913.82 3.8923e-15
24079.6 3.7343e-15
24302.39 3.6661e-15
24527.27 3.3823e-15
24697.3 3.2901e-15
24925.8 2.7875e-15
25098.59 2.7429e-15
25272.56 2.7556e-15
25506.41 2.7303e-15
25683.2 2.7811e-15
25920.85 2.7303e-15
26100.52 2.724e-15
26281.45 2.6559e-15
26524.61 2.6315e-15
26708.49 2.5835e-15
26893.61 2.5422e-15
27080.04 2.5073e-15
27330.59 2.4559e-15
27520.06 2.4222e-15
27710.8 2.3671e-15
27902.9 2.34e-15
28096.3 2.2973e-15
28291.07 2.2657e-15
28487.16 2.2244e-15
28684.61 2.1788e-15
28883.46 2.1489e-15
29083.66 2.1145e-15
29285.27 2.0759e-15
29488.25 2.0427e-15
29692.68 2.0147e-15
29898.48 1.9779e-15
30105.74 1.9508e-15
30314.41 1.9196e-15
30524.56 1.902e-15
30665.44 1.8802e-15
30877.99 1.8587e-15
31092.05 1.8417e-15
31307.55 1.8248e-15
31524.58 1.808e-15
31670.08 1.7874e-15
31889.6 1.7791e-15
32110.66 1.775e-15
32333.22 1.7874e-15
32482.49 1.829e-15
32707.64 1.9734e-15
32934.38 2.389e-15
33086.38 2.3671e-15
33315.71 1.9064e-15
33469.51 1.7267e-15
33701.5 1.6414e-15
33935.12 1.5893e-15
34091.75 1.5496e-15
34328.04 1.5213e-15
34486.52 1.4935e-15
34725.55 1.4663e-15
34885.83 1.4428e-15
35127.66 1.4197e-15
35289.8 1.3938e-15
35534.43 1.3715e-15
35698.44 1.3496e-15
35863.21 1.328e-15
36111.82 1.3098e-15
36278.49 1.2859e-15
36529.94 1.2653e-15
36698.59 1.2451e-15
36867.97 1.2196e-15
37123.5 1.2001e-15
37294.89 1.1836e-15
37467.02 1.1567e-15
37726.75 1.1461e-15
37900.88 1.1251e-15
38075.81 1.1072e-15
38339.76 1.092e-15
38516.72 1.0745e-15
38694.49 1.0549e-15
38873.12 1.038e-15
39142.56 1.0214e-15
39323.22 1.0074e-15
39504.76 9.8676e-16
39687.09 9.7098e-16
39870.26 9.5326e-16
40054.28 9.4018e-16
40331.95 9.2514e-16
40518.1 9.1035e-16
40705.16 8.958e-16
40893.03 8.8351e-16
41081.77 8.7138e-16
41271.38 8.5943e-16
41461.91 8.4569e-16
41653.28 8.3408e-16
41942.03 8.2075e-16
42135.61 8.0949e-16
42330.08 8.0022e-16
42525.46 7.8743e-16
42721.78 7.7841e-16
42918.96 7.5199e-16
43117.05 7.2646e-16
43316.1 7.2479e-16
43516.03 7.0179e-16
43716.87 6.8899e-16
43918.69 6.7953e-16
44121.4 6.6254e-16
44325.04 6.5345e-16
44529.62 6.4448e-16
44735.19 6.3126e-16
44941.67 6.2836e-16
45149.09 6.1832e-16
45253.21 6.0843e-16
45462.08 6.0424e-16
45671.9 5.9732e-16
45882.7 5.8507e-16
46094.52 5.8373e-16
46307.27 5.7572e-16
46521.0 5.6913e-16
46735.77 5.6651e-16
46951.47 5.6003e-16
47059.7 5.5362e-16
47276.9 5.5107e-16
47495.16 5.4351e-16
47714.37 5.3853e-16
47934.59 5.3482e-16
48045.09 5.2627e-16
48266.89 5.2627e-16
48489.66 5.2025e-16
48713.47 5.1517e-16
48938.35 5.1215e-16
49051.16 5.083e-16
49277.55 5.0649e-16
49504.99 5.0236e-16
49733.53 5.0173e-16
49848.17 4.9796e-16
50078.24 4.9619e-16
50309.43 4.9329e-16
50541.63 4.9041e-16
50658.14 4.8898e-16
50774.91 4.8755e-16
50891.95 4.8725e-16
51009.25 4.8583e-16
51126.89 4.8441e-16
51244.74 4.8411e-16
51362.87 4.827e-16
51481.26 4.8129e-16
51599.93 4.81e-16
51718.87 4.807e-16
51838.14 4.8041e-16
51957.64 4.7901e-16
52077.4 4.7872e-16
52197.44 4.7733e-16
52317.76 4.7594e-16
52438.36 4.7565e-16
52559.23 4.7646e-16
52680.44 4.7727e-16
52801.88 4.7698e-16
52923.59 4.745e-16
53045.58 4.7422e-16
53167.85 4.7393e-16
53290.41 4.7474e-16
53413.25 4.7445e-16
53536.43 4.7417e-16
53659.83 4.7498e-16
53783.52 4.747e-16
53907.5 4.7551e-16
54031.76 4.7523e-16
54156.3 4.7604e-16
54281.2 4.7576e-16
54406.32 4.7548e-16
54531.73 4.7739e-16
54657.43 4.7821e-16
54783.42 4.7793e-16
54909.7 4.7875e-16
55036.27 4.7957e-16
55163.19 4.815e-16
55290.35 4.8456e-16
55417.8 4.8539e-16
55545.54 4.8511e-16
55673.57 4.8819e-16
55801.9 4.9016e-16
55930.59 4.9213e-16
56059.52 4.9412e-16
56188.74 4.9726e-16
56318.26 4.9926e-16
56448.08 5.0244e-16
56578.19 5.0679e-16
56708.61 5.1001e-16
56839.39 5.1326e-16
56970.41 5.1652e-16
57101.73 5.222e-16
57233.35 5.2795e-16
57365.28 5.3253e-16
57497.51 5.3963e-16
57630.05 5.4432e-16
57762.95 5.5158e-16
57896.1 5.5894e-16
58029.55 5.677e-16
58163.32 5.766e-16
58297.39 5.8699e-16
58431.77 5.9894e-16
58566.52 6.0834e-16
58701.52 6.2073e-16
58836.83 6.3483e-16
58972.45 6.5076e-16
59089.66 8.556e-16
59390.82 7.5649e-16
59692.0 7.9636e-16
59993.16 9.3486e-16
60294.32 8.9448e-16
60595.49 9.5571e-16
60896.65 1.0155e-15
61197.82 1.2648e-15
61498.99 1.7653e-15
61800.15 2.4362e-15
62101.32 2.8234e-15
62402.48 2.7643e-15
62703.64 2.3286e-15
63004.82 1.9318e-15
63305.98 1.6512e-15
63607.14 1.4567e-15
63908.32 1.265e-15
64209.48 1.1331e-15
64510.64 9.8569e-16
64811.82 9.0622e-16
65112.98 8.9499e-16
65414.14 9.1481e-16
65715.31 8.5688e-16
66016.47 8.8337e-16
66317.65 9.7218e-16
66618.81 8.9825e-16
66919.97 8.9261e-16
67221.15 9.1441e-16
67522.3 9.0158e-16
67823.47 9.2878e-16
68124.64 8.8e-16
68425.8 8.6769e-16
68726.97 8.9754e-16
69028.14 1.0898e-15
69329.3 1.0689e-15
69630.47 1.3024e-15
69931.63 1.5404e-15
70232.81 1.2674e-15
70533.96 1.2007e-15
70835.13 1.1179e-15
71136.31 1.1547e-15
71437.46 1.1646e-15
71738.63 1.146e-15
72039.8 1.2112e-15
72340.96 1.3279e-15
72642.13 1.3116e-15
72943.29 1.3994e-15
73224.75 1.2806e-15
73244.46 1.4788e-15
73545.63 1.5173e-15
73828.27 1.5963e-15
73846.79 1.7021e-15
74431.8 1.8752e-15
75035.33 2.2753e-15
75638.87 2.6153e-15
76242.39 2.773e-15
76845.94 2.6672e-15
77449.46 2.5724e-15
78052.99 2.4133e-15
78656.53 2.2485e-15
79260.06 2.0096e-15
79863.59 1.7303e-15
80467.12 1.5056e-15
81070.65 1.3338e-15
81674.19 1.2411e-15
82277.72 1.1263e-15
82881.26 1.1418e-15
83484.78 1.1818e-15
84088.33 1.1764e-15
84691.85 1.2031e-15
85295.38 1.2569e-15
85898.92 1.3021e-15
86502.45 1.2341e-15
87105.97 1.0255e-15
87709.51 8.4204e-16
88313.04 6.7178e-16
88916.58 5.7447e-16
89520.11 5.1188e-16
90123.64 4.7493e-16
90727.18 3.9931e-16
91330.7 3.7839e-16
91934.23 3.4324e-16
92537.76 3.4289e-16
93141.3 3.1947e-16
93744.83 3.3129e-16
94348.36 3.1068e-16
94951.9 3.3141e-16
95555.43 3.0912e-16
96158.96 3.444e-16
96762.5 3.6618e-16
97365.99 3.1951e-16
97969.57 2.7065e-16
98573.06 2.6279e-16
99176.65 2.601e-16
99780.14 2.6303e-16
100383.72 2.5863e-16
100987.23 2.5655e-16
101590.72 2.5738e-16
102194.3 2.6245e-16
102797.79 2.3552e-16
103401.38 2.5085e-16
104004.87 2.6889e-16
104608.36 2.9092e-16
105211.95 3.3663e-16
105815.45 3.46e-16
106419.03 3.6336e-16
107022.52 3.5433e-16
107626.11 3.6933e-16
108229.6 3.747e-16
108833.09 3.9415e-16
109436.68 4.4272e-16
110040.17 5.3765e-16
110643.76 6.0678e-16
111247.25 7.6258e-16
111850.84 1.226e-15
112454.33 1.4904e-15
113057.82 1.3366e-15
113661.41 1.0896e-15
114264.9 8.8389e-16
114868.48 7.2379e-16
115471.97 6.4729e-16
116075.57 5.8586e-16
116679.06 5.4911e-16
117282.55 5.4087e-16
117886.14 5.3581e-16
118489.63 5.4729e-16
119093.21 5.7611e-16
119696.7 5.9075e-16
120300.21 5.755e-16
120903.79 5.6518e-16
121507.28 5.535e-16
122110.87 5.5864e-16
122714.36 6.2302e-16
123317.94 6.2288e-16
123921.44 6.1915e-16
124524.93 6.427e-16
125128.52 6.782e-16
125732.01 7.1695e-16
126335.6 7.5464e-16
126939.09 7.9285e-16
127542.58 9.6447e-16
128146.16 1.2938e-15
128749.66 9.3552e-16
129353.25 5.6282e-16
129956.73 4.8521e-16
130560.32 4.6891e-16
131163.82 4.5415e-16
131767.31 4.4718e-16
132370.9 4.463e-16
132974.38 4.3947e-16
133577.97 4.3438e-16
134181.47 4.2728e-16
134785.06 4.2798e-16
135388.54 4.2899e-16
135992.04 4.2165e-16
136595.63 4.0314e-16
137199.12 3.8932e-16
137802.7 3.8794e-16
138406.19 3.7152e-16
139009.78 3.9077e-16
139613.28 3.6394e-16
140216.76 3.4521e-16
140820.36 3.4493e-16
141339.68 3.5824e-16
142230.86 3.8017e-16
143122.15 3.6645e-16
144013.35 3.5565e-16
144904.53 3.2549e-16
145795.73 3.232e-16
146687.02 3.0613e-16
147578.22 3.081e-16
148469.4 3.0965e-16
149360.69 3.0053e-16
150251.89 2.9731e-16
151143.07 2.9037e-16
152034.27 2.8629e-16
152925.56 2.8713e-16
153816.75 2.9444e-16
154707.94 3.1812e-16
155599.23 3.9745e-16
156490.42 3.5367e-16
157381.61 2.9423e-16
158272.9 3.0302e-16
159164.09 2.9799e-16
160055.28 3.1172e-16
160946.47 2.9932e-16
161837.78 3.035e-16
162728.95 3.3246e-16
163620.14 3.8406e-16
164511.34 4.2751e-16
165402.63 3.9322e-16
166293.83 3.7835e-16
167185.03 3.7854e-16
168076.32 3.8244e-16
168967.5 3.8811e-16
169858.7 4.88e-16
170749.98 5.2908e-16
171641.17 4.1396e-16
172532.37 3.7015e-16
173423.55 3.8494e-16
174314.84 3.7697e-16
175206.03 3.4038e-16
176097.22 3.1468e-16
176988.51 3.1433e-16
177879.7 3.1088e-16
178770.89 2.991e-16
179662.18 2.915e-16
180553.37 2.8225e-16
181444.57 2.7907e-16
182335.75 2.7167e-16
183227.04 2.7022e-16
184118.24 2.7121e-16
185009.42 2.7789e-16
185900.73 3.0569e-16
186791.93 4.5361e-16
187683.09 5.1257e-16
188574.29 3.0674e-16
189465.6 2.7543e-16
190356.78 2.8761e-16
191247.98 2.8163e-16
192139.26 2.7366e-16
193030.45 2.6616e-16
193921.65 2.7351e-16
194812.84 2.6712e-16
195704.13 2.7254e-16
196595.31 2.8057e-16
197486.51 2.6875e-16
198377.8 2.6817e-16
199789.09 2.5062e-16
201494.87 2.8062e-16
203201.63 2.7419e-16
204909.39 2.6222e-16
206617.99 2.9062e-16
208327.47 2.8957e-16
210037.93 2.7273e-16
211749.28 2.8696e-16
213461.57 2.887e-16
215174.85 2.847e-16
216889.0 2.7849e-16
218604.13 2.9265e-16
220320.13 3.0374e-16
222037.08 2.9579e-16
223755.03 2.853e-16
225473.85 2.947e-16
227193.64 3.0592e-16
228914.41 3.1137e-16
230636.05 3.0312e-16
232358.76 3.0241e-16
234082.24 3.0368e-16
235806.78 3.1306e-16
237532.31 3.0804e-16
239258.71 3.0521e-16
240986.07 3.0929e-16
242714.42 3.1668e-16
244443.63 3.1374e-16
246173.92 3.112e-16
247905.09 3.1059e-16
249637.32 3.1378e-16
251370.41 3.1852e-16
253104.51 3.1901e-16
254839.55 3.1996e-16
256575.56 3.1961e-16
258312.55 3.4178e-16
260050.54 3.5223e-16
261789.47 3.2848e-16
263529.37 3.2274e-16
265270.25 3.2131e-16
267012.1 3.1907e-16
268755.04 3.1408e-16
270498.83 3.1837e-16
272243.59 3.2583e-16
273989.41 3.2397e-16
275736.24 3.2426e-16
277483.92 3.2211e-16
279232.66 3.2161e-16
280982.41 3.3315e-16
282733.21 3.4372e-16
284484.96 3.3598e-16
286237.62 3.2034e-16
287991.41 3.2596e-16
289746.1 3.2603e-16
291501.83 3.2791e-16
293258.56 3.2452e-16
295016.26 3.4275e-16
296775.02 3.2952e-16
298534.76 3.3404e-16
300295.47 3.2998e-16
302057.24 3.3575e-16
303820.11 3.3019e-16
305583.91 3.262e-16
307348.72 3.3749e-16
309114.47 3.4401e-16
310881.41 3.3651e-16
312649.23 3.3817e-16
314418.17 3.4577e-16
316188.02 3.2297e-16
317959.02 3.4069e-16
319731.03 3.412e-16
321503.95 3.4163e-16
323277.99 3.5032e-16
325053.1 3.4549e-16
326829.24 3.7254e-16
328606.41 3.6075e-16
330384.58 3.8295e-16
332163.76 3.9319e-16
333944.03 5.223e-16
335725.45 5.1692e-16
337507.73 3.8385e-16
339291.19 3.8263e-16
