# col1 col2
# An Atlas of Galaxy Spectral Energy Distributions from the Ultraviolet to the Mid-Infrared
# Brown et al. (2014)
# http://dx.doi.org/10.5072/03/529D3551F0117
# 
# Column 1 : Restframe Wavelength (Angstrom)
# Column 2 : Flux per unit wavelength (ergs/s/cm^2/Angstrom)
# Column 3 : Observed wavelength (Angstrom)
# Column 4 : Source (0 = model, 1 = Optical Spectrum, 2 = Akari, 3 = Spitzer IRS)
# 
102.05 2.1555e-18
103.95 2.5442e-18
105.88 3.0658e-18
108.1 3.7805e-18
110.11 5.279e-18
113.98 7.1211e-18
117.99 9.0688e-18
121.01 3.1956e-17
124.98 3.8331e-17
127.01 4.0696e-17
127.89 4.2712e-17
130.87 4.6297e-17
132.08 5.4019e-17
133.92 5.6435e-17
137.04 6.959e-17
139.9 7.4396e-17
143.16 1.93e-16
146.84 4.6617e-16
150.95 4.8927e-16
154.82 5.2065e-16
159.16 5.5789e-16
162.12 5.8284e-16
165.89 6.2596e-16
170.15 6.5546e-16
172.91 6.8478e-16
176.94 7.154e-16
179.82 7.3884e-16
181.9 7.5605e-16
186.14 7.8804e-16
190.91 8.2708e-16
194.01 8.5812e-16
198.08 8.8623e-16
202.22 9.2161e-16
205.04 9.4743e-16
209.81 9.4308e-16
216.19 1.0317e-15
220.21 1.0679e-15
222.76 1.0778e-15
226.9 1.1183e-15
230.06 1.7161e-15
233.79 2.7324e-15
239.79 3.3155e-15
245.94 3.08e-15
252.25 3.2251e-15
256.94 2.6887e-15
259.92 3.0729e-15
264.14 3.1956e-15
269.05 3.1517e-15
274.05 3.0942e-15
279.15 3.0377e-15
283.68 3.003e-15
290.29 2.8219e-15
295.69 2.8155e-15
301.18 2.7324e-15
308.2 2.7074e-15
318.3 2.6764e-15
327.97 2.5915e-15
337.93 2.492e-15
348.2 2.3908e-15
357.13 2.3257e-15
366.3 2.2885e-15
374.83 2.2108e-15
385.33 2.0538e-15
395.21 2.0585e-15
405.35 2.0116e-15
413.84 1.9389e-15
421.53 1.8602e-15
430.36 1.797e-15
441.4 1.748e-15
450.64 1.6771e-15
460.08 1.6053e-15
469.71 1.5472e-15
479.55 1.5085e-15
489.59 1.4274e-15
499.84 1.4046e-15
505.63 1.3663e-15
511.48 1.5016e-15
519.8 1.464e-15
529.46 1.4111e-15
540.55 1.323e-15
550.6 1.3507e-15
559.54 1.3917e-15
569.94 1.4143e-15
580.54 1.3445e-15
589.97 1.3981e-15
599.56 1.3538e-15
609.3 1.3018e-15
620.63 1.4539e-15
630.71 1.4539e-15
639.49 1.4406e-15
649.88 1.4912e-15
657.4 1.505e-15
665.02 1.5401e-15
674.27 1.5155e-15
685.22 1.4607e-15
694.76 1.6771e-15
704.42 1.5796e-15
715.87 1.7601e-15
725.83 1.7764e-15
734.23 1.7929e-15
744.44 1.9255e-15
754.8 1.984e-15
765.3 2.0024e-15
774.16 2.1505e-15
784.93 2.2364e-15
795.85 2.2885e-15
805.07 2.3418e-15
814.39 2.3798e-15
825.72 2.5442e-15
835.28 2.121e-15
844.95 2.5915e-15
854.74 2.6275e-15
864.63 2.7704e-15
874.65 2.9211e-15
884.77 3.1228e-15
895.02 3.2475e-15
905.38 3.2103e-15
915.87 4.859e-15
924.34 3.2927e-14
935.04 7.3206e-14
945.87 1.4143e-13
954.62 2.0116e-13
965.68 2.2571e-13
974.61 3.4558e-14
985.9 1.8774e-13
995.02 1.984e-13
1004.23 2.901e-13
1015.86 2.7577e-13
1025.26 1.1364e-13
1034.74 1.8602e-13
1044.32 3.627e-13
1053.98 3.5282e-13
1066.18 2.745e-13
1076.05 3.2625e-13
1086.01 2.5325e-13
1096.06 3.3771e-13
1106.2 3.2103e-13
1113.87 3.0517e-13
1124.17 2.7199e-13
1134.57 3.4558e-13
1145.07 3.1013e-13
1155.67 3.2851e-13
1163.68 3.3771e-13
1174.44 2.3044e-13
1185.31 3.2251e-13
1196.28 2.1654e-13
1204.57 1.519e-13
1215.72 9.9208e-14
1224.14 2.0871e-13
1235.47 3.2029e-13
1244.03 3.5119e-13
1255.55 3.3231e-13
1264.25 2.8155e-13
1275.95 3.6521e-13
1284.79 3.8155e-13
1293.7 2.9617e-13
1305.67 2.9077e-13
1314.72 3.6521e-13
1323.83 3.4638e-13
1336.08 3.0307e-13
1345.34 3.6103e-13
1354.67 3.4718e-13
1364.06 3.0729e-13
1373.51 3.2177e-13
1386.22 3.24e-13
1395.83 2.8025e-13
1405.5 2.901e-13
1415.25 2.9414e-13
1425.06 3.0099e-13
1434.94 2.9686e-13
1441.56 3.13e-13
1448.21 3.1736e-13
1454.9 3.0658e-13
1464.98 2.809e-13
1475.14 2.7832e-13
1485.36 2.8219e-13
1495.66 2.8612e-13
1506.03 2.6887e-13
1512.98 2.3798e-13
1516.46 2.5442e-13
1523.46 2.4578e-13
1534.03 2.121e-13
1544.66 2.331e-13
1555.37 2.1855e-13
1566.15 2.2159e-13
1573.38 2.358e-13
1584.28 2.4635e-13
1595.26 2.5035e-13
1606.32 2.4409e-13
1613.74 2.4409e-13
1624.92 2.2938e-13
1636.18 2.4353e-13
1643.74 2.4635e-13
1655.13 2.2623e-13
1666.6 2.4635e-13
1670.45 2.1905e-13
1678.16 2.4692e-13
1685.9 2.5677e-13
1693.68 2.3963e-13
1705.42 2.2885e-13
1713.3 2.1654e-13
1725.17 2.1456e-13
1733.14 2.2832e-13
1745.15 2.2159e-13
1753.2 2.3635e-13
1765.36 2.1505e-13
1773.51 2.2006e-13
1785.8 2.2312e-13
1794.04 2.3798e-13
1806.48 2.3472e-13
1814.82 2.1605e-13
1823.19 2.1956e-13
1835.83 2.1016e-13
1844.3 1.9167e-13
1857.09 1.9255e-13
1865.66 1.984e-13
1874.27 2.1357e-13
1882.92 1.9613e-13
1895.97 1.8817e-13
1904.73 1.984e-13
1913.52 1.9079e-13
1926.78 1.8602e-13
1935.68 1.8904e-13
1944.61 1.9932e-13
1953.59 1.8644e-13
1967.13 2.0349e-13
1976.21 2.0775e-13
1985.33 1.9658e-13
1994.49 1.9035e-13
2003.7 1.9478e-13
2012.95 1.8774e-13
2026.9 1.9478e-13
2036.26 1.8559e-13
2045.66 1.9255e-13
2055.1 1.8262e-13
2064.58 1.8304e-13
2074.11 1.9613e-13
2078.89 1.8947e-13
2083.69 1.9658e-13
2093.3 1.8516e-13
2102.97 1.8516e-13
2112.67 1.8687e-13
2127.32 1.8817e-13
2137.14 1.744e-13
2147.0 1.797e-13
2156.91 1.8559e-13
2166.87 1.7846e-13
2176.87 1.7683e-13
2186.92 1.748e-13
2197.01 1.822e-13
2207.15 1.7642e-13
2217.34 1.6655e-13
2222.45 1.6164e-13
2232.71 1.736e-13
2243.02 1.654e-13
2253.37 1.5723e-13
2263.77 1.5979e-13
2274.22 1.6427e-13
2284.72 1.6887e-13
2295.26 1.5833e-13
2305.86 1.5986e-13
2316.5 1.5202e-13
2327.19 1.208e-13
2332.56 1.3937e-13
2343.32 1.3315e-13
2354.14 1.4605e-13
2365.01 1.3203e-13
2375.92 1.3704e-13
2386.89 1.2503e-13
2392.39 1.3338e-13
2403.44 1.2802e-13
2414.53 1.3135e-13
2425.67 1.4113e-13
2436.87 1.3577e-13
2442.49 1.4351e-13
2453.76 1.416e-13
2465.09 1.3971e-13
2476.47 1.3379e-13
2482.17 1.3505e-13
2493.63 1.2667e-13
2505.14 1.435e-13
2510.92 1.2444e-13
2516.71 1.262e-13
2522.51 1.2194e-13
2534.15 1.2454e-13
2545.85 1.2289e-13
2557.6 1.3295e-13
2563.5 1.2817e-13
2575.33 1.3551e-13
2587.21 1.334e-13
2593.18 1.3069e-13
2605.15 1.2573e-13
2617.17 1.2292e-13
2623.21 1.2993e-13
2635.31 1.3611e-13
2647.48 1.4931e-13
2653.58 1.5423e-13
2665.83 1.372e-13
2671.98 1.4403e-13
2684.31 1.4443e-13
2696.7 1.3578e-13
2702.92 1.4059e-13
2715.39 1.3156e-13
2727.93 1.3072e-13
2734.21 1.3722e-13
2746.83 1.1658e-13
2753.17 1.2043e-13
2765.87 1.2616e-13
2772.25 1.3214e-13
2785.05 1.214e-13
2797.9 9.6698e-14
2804.35 1.034e-13
2817.3 1.2874e-13
2823.79 1.383e-13
2836.82 1.3336e-13
2843.36 1.2916e-13
2856.49 1.2115e-13
2863.07 1.3691e-13
2876.29 1.3792e-13
2882.92 1.3637e-13
2896.23 1.3612e-13
2909.59 1.4933e-13
2929.76 1.4205e-13
2950.07 1.3892e-13
2970.52 1.4193e-13
2991.11 1.4171e-13
3011.84 1.4345e-13
3032.72 1.429e-13
3046.72 1.433e-13
3067.84 1.4407e-13
3089.1 1.4484e-13
3110.52 1.4495e-13
3132.08 1.4209e-13
3146.53 1.4249e-13
3168.35 1.4325e-13
3190.31 1.3472e-13
3212.42 1.3989e-13
3227.25 1.3152e-13
3249.62 1.4169e-13
3272.14 1.4781e-13
3287.25 1.4585e-13
3310.03 1.453e-13
3325.31 1.4605e-13
3332.98 1.4984e-13
3340.66 1.3891e-13
3348.36 1.5341e-13
3356.08 1.4722e-13
3363.82 1.3124e-13
3371.57 1.325e-13
3379.34 1.4734e-13
3387.13 1.467e-13
3394.94 1.4143e-13
3402.77 1.5476e-13
3410.61 1.3861e-13
3418.48 1.4025e-13
3426.36 1.4389e-13
3434.25 1.5246e-13
3442.17 1.394e-13
3450.11 1.4368e-13
3458.06 1.4207e-13
3466.03 1.3952e-13
3474.02 1.4613e-13
3482.03 1.4024e-13
3490.06 1.4588e-13
3498.1 1.3431e-13
3506.17 1.4529e-13
3514.25 1.372e-13
3522.35 1.4571e-13
3530.47 1.3633e-13
3538.61 1.4612e-13
3546.77 1.4923e-13
3554.94 1.4961e-13
3563.14 1.4558e-13
3571.35 1.3465e-13
3579.58 1.3376e-13
3587.83 1.2344e-13
3596.11 1.3633e-13
3604.4 1.4345e-13
3612.7 1.3208e-13
3621.03 1.3963e-13
3628.14 1.4859e-13
3630.89 1.5538e-13
3633.63 1.4067e-13
3636.37 1.2638e-13
3639.11 1.2335e-13
3641.86 1.3375e-13
3644.6 1.3128e-13
3647.34 1.3459e-13
3650.08 1.4305e-13
3652.83 1.2909e-13
3655.57 1.4942e-13
3658.31 1.6287e-13
3661.05 1.4474e-13
3663.8 1.3864e-13
3666.54 1.4087e-13
3669.28 1.5309e-13
3672.02 1.4908e-13
3674.77 1.4949e-13
3677.51 1.4212e-13
3680.25 1.5128e-13
3683.0 1.4395e-13
3685.74 1.3738e-13
3688.48 1.4226e-13
3691.22 1.4952e-13
3693.97 1.3653e-13
3696.71 1.3863e-13
3699.45 1.5456e-13
3702.19 1.5098e-13
3704.94 1.3841e-13
3707.68 1.3138e-13
3710.42 1.4701e-13
3713.16 1.5981e-13
3715.91 1.5626e-13
3718.65 1.629e-13
3721.39 1.7355e-13
3724.13 2.0261e-13
3726.88 2.7372e-13
3729.62 4.0868e-13
3732.36 5.2174e-13
3735.11 5.2928e-13
3737.85 4.2686e-13
3740.59 2.6283e-13
3743.33 1.9426e-13
3746.08 1.7665e-13
3748.82 1.5377e-13
3751.56 1.4961e-13
3754.3 1.4313e-13
3757.05 1.5013e-13
3759.79 1.5498e-13
3762.53 1.6091e-13
3765.27 1.7539e-13
3768.02 1.7513e-13
3770.76 1.7638e-13
3773.5 1.6029e-13
3776.24 1.6093e-13
3778.99 1.709e-13
3781.73 1.8042e-13
3784.47 1.8537e-13
3787.21 1.9067e-13
3789.96 1.9706e-13
3792.7 2.0961e-13
3795.44 1.8746e-13
3798.19 1.7875e-13
3800.93 1.6585e-13
3803.67 1.4799e-13
3806.41 1.5348e-13
3809.16 1.7389e-13
3811.9 2.0055e-13
3814.64 1.9152e-13
3817.38 2.1298e-13
3820.13 2.2405e-13
3822.87 1.9846e-13
3825.61 1.832e-13
3828.35 1.855e-13
3831.1 1.7389e-13
3833.84 1.6947e-13
3836.58 1.5113e-13
3839.32 1.3219e-13
3842.07 1.4464e-13
3844.81 1.5493e-13
3847.55 1.6626e-13
3850.29 1.7284e-13
3853.04 1.8752e-13
3855.78 2.0525e-13
3858.52 2.094e-13
3861.27 2.0191e-13
3864.01 2.1289e-13
3866.75 2.166e-13
3869.49 2.3437e-13
3872.24 2.1921e-13
3874.98 2.2093e-13
3877.72 2.1751e-13
3880.46 2.1353e-13
3883.21 2.0474e-13
3885.95 1.8685e-13
3888.69 1.7672e-13
3891.43 1.84e-13
3894.18 1.8207e-13
3896.92 1.7814e-13
3899.66 1.7987e-13
3902.4 1.8318e-13
3905.15 1.8892e-13
3907.89 1.984e-13
3910.63 2.0582e-13
3913.38 2.0249e-13
3916.12 2.0346e-13
3918.86 2.1758e-13
3921.6 2.1522e-13
3924.35 2.1379e-13
3927.09 2.0724e-13
3929.83 2.0568e-13
3932.57 1.9645e-13
3935.32 1.7245e-13
3938.06 1.7445e-13
3940.8 1.6623e-13
3943.54 1.7628e-13
3946.29 1.9466e-13
3949.03 1.985e-13
3951.77 2.1279e-13
3954.51 2.0435e-13
3957.26 1.9784e-13
3960.0 1.9365e-13
3962.74 1.8774e-13
3965.48 1.8018e-13
3968.23 1.6952e-13
3970.97 1.4576e-13
3973.71 1.37e-13
3976.46 1.4987e-13
3979.2 1.5384e-13
3981.94 1.7078e-13
3984.68 1.9271e-13
3987.43 1.9847e-13
3990.17 2.0678e-13
3992.91 2.2389e-13
3995.65 2.2523e-13
3998.4 2.2391e-13
4001.14 2.2382e-13
4003.88 2.3391e-13
4006.62 2.3802e-13
4009.37 2.3515e-13
4012.11 2.2547e-13
4014.85 2.2817e-13
4017.59 2.2701e-13
4020.34 2.2876e-13
4023.08 2.3533e-13
4025.82 2.3448e-13
4028.57 2.3382e-13
4031.31 2.2736e-13
4034.05 2.2402e-13
4036.79 2.3306e-13
4039.54 2.316e-13
4042.28 2.3226e-13
4045.02 2.3875e-13
4047.76 2.3362e-13
4050.51 2.2613e-13
4053.25 2.2811e-13
4055.99 2.3717e-13
4058.73 2.4544e-13
4061.48 2.4139e-13
4064.22 2.2785e-13
4066.96 2.2255e-13
4069.7 2.2034e-13
4072.45 2.3165e-13
4075.19 2.3618e-13
4077.93 2.2864e-13
4080.67 2.234e-13
4083.42 2.2503e-13
4086.16 2.2402e-13
4088.9 2.1999e-13
4091.65 2.1754e-13
4094.39 2.0898e-13
4097.13 2.0127e-13
4099.87 2.0594e-13
4102.62 2.0411e-13
4105.36 2.0033e-13
4108.1 1.9904e-13
4110.84 1.9257e-13
4113.59 2.0006e-13
4116.33 1.9919e-13
4119.07 2.0781e-13
4121.81 2.1111e-13
4124.56 2.1118e-13
4127.3 2.1826e-13
4130.04 2.161e-13
4132.78 2.1544e-13
4135.53 2.1468e-13
4138.27 2.2511e-13
4141.01 2.3117e-13
4143.76 2.2644e-13
4146.5 2.1986e-13
4149.24 2.1855e-13
4151.98 2.2875e-13
4154.73 2.3571e-13
4157.47 2.1765e-13
4160.21 2.1568e-13
4162.95 2.1815e-13
4165.7 2.3223e-13
4168.44 2.3188e-13
4171.18 2.2905e-13
4173.92 2.1728e-13
4176.67 2.1376e-13
4179.41 2.1671e-13
4182.15 2.1925e-13
4184.89 2.0748e-13
4187.64 2.2559e-13
4190.38 2.2051e-13
4193.12 2.2035e-13
4195.86 2.2088e-13
4198.61 2.1411e-13
4201.35 2.2409e-13
4204.09 2.1321e-13
4206.84 2.1755e-13
4209.58 2.2173e-13
4212.32 2.275e-13
4215.06 2.2456e-13
4217.81 2.1916e-13
4220.55 2.2901e-13
4223.29 2.2327e-13
4226.03 2.1886e-13
4228.78 2.2154e-13
4231.52 2.0771e-13
4234.26 2.1721e-13
4237.0 2.1604e-13
4239.75 2.2336e-13
4242.49 2.1083e-13
4245.23 2.1721e-13
4247.97 2.1015e-13
4250.72 2.2051e-13
4253.46 2.2251e-13
4256.2 2.2139e-13
4258.95 2.2216e-13
4261.69 2.2148e-13
4264.43 2.1639e-13
4267.17 2.1508e-13
4269.92 2.282e-13
4272.66 2.1936e-13
4275.4 2.132e-13
4278.14 2.1654e-13
4280.89 2.1282e-13
4283.63 2.1019e-13
4286.37 2.1391e-13
4289.11 2.1803e-13
4291.86 2.064e-13
4294.6 2.0373e-13
4297.34 2.0375e-13
4300.08 1.9932e-13
4302.83 2.0211e-13
4305.57 2.0356e-13
4308.31 2.0366e-13
4311.05 1.9246e-13
4313.8 1.905e-13
4316.54 1.9843e-13
4319.28 2.004e-13
4322.03 2.1134e-13
4324.77 2.1035e-13
4327.51 2.0973e-13
4330.25 2.0798e-13
4333.0 2.0493e-13
4335.74 1.9795e-13
4338.48 2.0128e-13
4341.22 2.2243e-13
4343.97 2.2313e-13
4346.71 2.2654e-13
4349.45 2.1099e-13
4352.19 2.028e-13
4354.94 1.905e-13
4357.68 1.9473e-13
4360.42 2.1351e-13
4363.16 2.0453e-13
4365.91 2.1484e-13
4368.65 2.1998e-13
4371.39 2.139e-13
4374.13 2.2008e-13
4376.88 2.134e-13
4379.62 2.1393e-13
4382.36 2.1276e-13
4385.11 2.0618e-13
4387.85 2.128e-13
4390.59 2.0462e-13
4393.33 2.1155e-13
4396.08 2.093e-13
4398.82 2.1211e-13
4401.56 2.1133e-13
4404.3 2.0998e-13
4407.05 2.1381e-13
4409.79 2.1888e-13
4412.53 2.1455e-13
4415.27 2.1223e-13
4418.02 2.1358e-13
4420.76 2.2052e-13
4423.5 2.1428e-13
4426.24 2.123e-13
4428.99 2.1843e-13
4431.73 2.1111e-13
4434.47 2.101e-13
4437.22 2.2123e-13
4439.96 2.1606e-13
4442.7 2.1531e-13
4445.44 2.0924e-13
4448.19 2.1533e-13
4450.93 2.1944e-13
4453.67 2.2801e-13
4456.41 2.1899e-13
4459.16 2.1409e-13
4461.9 2.1317e-13
4464.64 2.1692e-13
4467.38 2.1736e-13
4470.13 2.1278e-13
4472.87 2.1579e-13
4475.61 2.1356e-13
4478.35 2.1762e-13
4481.1 2.2298e-13
4483.84 2.222e-13
4486.58 2.1696e-13
4489.32 2.2258e-13
4492.07 2.242e-13
4494.81 2.1953e-13
4497.55 2.2204e-13
4500.3 2.2118e-13
4503.04 2.241e-13
4505.78 2.2884e-13
4508.52 2.2627e-13
4511.27 2.2879e-13
4514.01 2.3205e-13
4516.75 2.3361e-13
4519.49 2.3077e-13
4522.24 2.2609e-13
4524.98 2.2544e-13
4527.72 2.1841e-13
4530.46 2.1978e-13
4533.21 2.1042e-13
4535.95 2.1424e-13
4538.69 2.1163e-13
4541.43 2.1153e-13
4544.18 2.2092e-13
4546.92 2.2001e-13
4549.66 2.2071e-13
4552.41 2.1802e-13
4555.15 2.1283e-13
4557.89 2.1151e-13
4560.63 2.0725e-13
4563.38 2.1455e-13
4566.12 2.2084e-13
4568.86 2.2469e-13
4571.6 2.2471e-13
4574.35 2.2464e-13
4577.09 2.2469e-13
4579.83 2.2351e-13
4582.57 2.2572e-13
4585.32 2.1636e-13
4588.06 2.141e-13
4590.8 2.1554e-13
4593.54 2.1649e-13
4596.29 2.1891e-13
4599.03 2.196e-13
4601.77 2.1665e-13
4604.51 2.181e-13
4607.26 2.1827e-13
4610.0 2.2033e-13
4612.74 2.2354e-13
4615.49 2.2837e-13
4618.23 2.2224e-13
4620.97 2.2058e-13
4623.71 2.2609e-13
4626.46 2.232e-13
4629.2 2.2372e-13
4631.94 2.228e-13
4634.68 2.2471e-13
4637.43 2.2136e-13
4640.17 2.1934e-13
4642.91 2.1824e-13
4645.65 2.2007e-13
4648.4 2.2444e-13
4651.14 2.1845e-13
4653.88 2.143e-13
4656.62 2.2074e-13
4659.37 2.2116e-13
4662.11 2.1878e-13
4664.85 2.1949e-13
4667.59 2.2081e-13
4670.34 2.1806e-13
4673.08 2.1543e-13
4675.82 2.1214e-13
4678.57 2.1515e-13
4681.31 2.1719e-13
4684.05 2.1847e-13
4686.79 2.1711e-13
4689.54 2.1669e-13
4692.28 2.1666e-13
4695.02 2.199e-13
4697.76 2.1706e-13
4700.51 2.1312e-13
4703.25 2.1347e-13
4705.99 2.1476e-13
4708.73 2.1235e-13
4711.48 2.1075e-13
4714.22 2.1209e-13
4716.96 2.1446e-13
4719.7 2.1681e-13
4722.45 2.193e-13
4725.19 2.1819e-13
4727.93 2.136e-13
4730.68 2.1415e-13
4733.42 2.1447e-13
4736.16 2.0781e-13
4738.9 2.049e-13
4741.65 2.0996e-13
4744.39 2.1007e-13
4747.13 2.1606e-13
4749.87 2.174e-13
4752.62 2.2163e-13
4755.36 2.1852e-13
4758.1 2.1048e-13
4760.84 2.1089e-13
4763.59 2.1055e-13
4766.33 2.1086e-13
4769.07 2.0939e-13
4771.81 2.0838e-13
4774.56 2.114e-13
4777.3 2.141e-13
4780.04 2.1839e-13
4782.78 2.186e-13
4785.53 2.1322e-13
4788.27 2.1253e-13
4791.01 2.1471e-13
4793.76 2.1267e-13
4796.5 2.1533e-13
4799.24 2.1777e-13
4801.98 2.1361e-13
4804.73 2.1334e-13
4807.47 2.1474e-13
4810.21 2.1298e-13
4812.95 2.1693e-13
4815.7 2.1574e-13
4818.44 2.2022e-13
4821.18 2.2421e-13
4823.92 2.186e-13
4826.67 2.1714e-13
4829.41 2.1499e-13
4832.15 2.1831e-13
4834.89 2.1653e-13
4837.64 2.0981e-13
4840.38 2.1351e-13
4843.12 2.1367e-13
4845.87 2.1078e-13
4848.61 2.0436e-13
4851.35 1.9932e-13
4854.09 1.9592e-13
4856.84 1.9595e-13
4859.58 2.1109e-13
4862.32 2.5035e-13
4865.06 2.9556e-13
4867.81 3.1133e-13
4870.55 2.844e-13
4873.29 2.3802e-13
4876.03 2.0472e-13
4878.78 1.9798e-13
4881.52 1.9268e-13
4884.26 1.9118e-13
4887.0 1.9644e-13
4889.75 2.0313e-13
4892.49 2.0054e-13
4895.23 2.008e-13
4897.97 2.01e-13
4900.72 2.0718e-13
4903.46 2.1387e-13
4906.2 2.1533e-13
4908.95 2.1163e-13
4911.69 2.0812e-13
4914.43 2.0857e-13
4917.17 2.0799e-13
4919.92 2.078e-13
4922.66 2.0705e-13
4925.4 2.0497e-13
4928.14 2.003e-13
4930.89 1.9864e-13
4933.63 2.0629e-13
4936.37 2.0794e-13
4939.11 2.0825e-13
4941.86 2.0753e-13
4944.6 2.0566e-13
4947.34 2.1144e-13
4950.08 2.1327e-13
4952.83 2.1464e-13
4955.57 2.1624e-13
4958.31 2.2575e-13
4961.05 2.4195e-13
4963.8 2.5042e-13
4966.54 2.4834e-13
4969.28 2.3311e-13
4972.03 2.2388e-13
4974.77 2.1734e-13
4977.51 2.1213e-13
4980.25 2.098e-13
4983.0 2.0719e-13
4985.74 2.0804e-13
4988.48 2.0568e-13
4991.22 2.0073e-13
4993.97 2.0228e-13
4996.71 2.0534e-13
4999.45 2.0886e-13
5002.19 2.0933e-13
5004.94 2.3161e-13
5007.68 2.7692e-13
5010.42 3.2079e-13
5013.16 3.3179e-13
5015.91 2.9771e-13
5018.65 2.5211e-13
5021.39 2.205e-13
5024.14 1.9982e-13
5026.88 1.9317e-13
5029.62 1.9787e-13
5032.36 2.0116e-13
5035.11 1.9571e-13
5037.85 2.0218e-13
5040.59 2.0438e-13
5043.33 1.9988e-13
5046.08 1.9327e-13
5048.82 1.9461e-13
5051.56 1.9892e-13
5054.3 2.0167e-13
5057.05 1.9974e-13
5059.79 2.0274e-13
5062.53 2.0369e-13
5065.27 2.0298e-13
5068.02 2.0303e-13
5070.76 2.0445e-13
5073.5 2.059e-13
5076.24 2.0279e-13
5078.99 1.9946e-13
5081.73 1.9572e-13
5084.47 1.9299e-13
5087.22 1.9547e-13
5089.96 1.9827e-13
5092.7 1.9871e-13
5095.44 1.9875e-13
5098.19 2.0328e-13
5100.93 2.0192e-13
5103.67 2.0048e-13
5106.41 1.9806e-13
5109.16 2.0163e-13
5111.9 2.0259e-13
5114.64 2.011e-13
5117.38 2.0077e-13
5120.13 1.9797e-13
5122.87 2.0214e-13
5125.61 2.0207e-13
5128.35 1.9585e-13
5131.1 1.9075e-13
5133.84 1.9218e-13
5136.58 1.9034e-13
5139.33 1.9164e-13
5142.07 1.9463e-13
5144.81 1.9241e-13
5147.55 1.9224e-13
5150.3 1.9442e-13
5153.04 1.95e-13
5155.78 1.9438e-13
5158.52 1.8797e-13
5161.27 1.9101e-13
5164.01 1.9683e-13
5166.75 1.9307e-13
5169.49 1.9019e-13
5172.24 1.7463e-13
5174.98 1.6387e-13
5177.72 1.669e-13
5180.46 1.7655e-13
5183.21 1.7853e-13
5185.95 1.83e-13
5188.69 1.8376e-13
5191.43 1.8281e-13
5194.18 1.8739e-13
5196.92 1.9009e-13
5199.66 1.8912e-13
5202.41 1.9258e-13
5205.15 1.8861e-13
5207.89 1.8973e-13
5210.63 1.8579e-13
5213.38 1.8225e-13
5216.12 1.8854e-13
5218.86 1.9223e-13
5221.6 1.9301e-13
5224.35 1.9356e-13
5227.09 1.9513e-13
5229.83 1.9017e-13
5232.57 1.9099e-13
5235.32 1.8773e-13
5238.06 1.8793e-13
5240.8 1.9234e-13
5243.54 1.9371e-13
5246.29 1.92e-13
5249.03 1.9436e-13
5251.77 1.9411e-13
5254.52 1.9158e-13
5257.26 1.9084e-13
5260.0 1.9287e-13
5262.74 1.9543e-13
5265.49 1.9446e-13
5268.23 1.8782e-13
5270.97 1.8356e-13
5273.71 1.828e-13
5276.46 1.8348e-13
5279.2 1.8942e-13
5281.94 1.882e-13
5284.68 1.8968e-13
5287.43 1.935e-13
5290.17 1.9588e-13
5292.91 1.9463e-13
5295.65 1.9722e-13
5298.4 1.9981e-13
5301.14 2.0175e-13
5303.88 1.9618e-13
5306.62 1.958e-13
5309.37 1.9853e-13
5312.11 2.0032e-13
5314.85 2.0488e-13
5317.6 2.0484e-13
5320.34 2.0068e-13
5323.08 1.9454e-13
5325.82 1.9015e-13
5328.57 1.9693e-13
5331.31 1.921e-13
5334.05 1.8922e-13
5336.79 1.9429e-13
5339.54 1.9517e-13
5342.28 1.9736e-13
5345.02 1.9997e-13
5347.76 1.9546e-13
5350.51 1.9549e-13
5353.25 1.9939e-13
5355.99 1.9845e-13
5358.73 2.0495e-13
5361.48 2.069e-13
5364.22 2.0798e-13
5366.96 2.0326e-13
5369.7 1.9585e-13
5372.45 1.9478e-13
5375.19 1.908e-13
5377.93 1.9378e-13
5380.68 1.9948e-13
5383.42 1.9805e-13
5386.16 1.9619e-13
5388.9 1.9806e-13
5391.65 1.97e-13
5394.39 2.0121e-13
5397.13 1.9679e-13
5399.87 1.8821e-13
5402.62 1.9076e-13
5405.36 1.8966e-13
5408.1 1.8637e-13
5410.84 1.8682e-13
5413.59 1.8701e-13
5416.33 1.8463e-13
5419.07 1.8758e-13
5421.81 1.8846e-13
5424.56 1.8709e-13
5427.3 1.9401e-13
5430.04 1.9767e-13
5432.79 1.9156e-13
5435.53 1.8755e-13
5438.27 1.8727e-13
5441.01 1.9181e-13
5443.76 1.9911e-13
5446.5 1.9792e-13
5449.24 1.9536e-13
5451.98 1.9406e-13
5454.73 1.9392e-13
5457.47 1.926e-13
5460.21 1.9418e-13
5462.95 1.9257e-13
5465.7 1.8663e-13
5468.44 1.8391e-13
5471.18 1.9055e-13
5473.92 1.957e-13
5476.67 1.9443e-13
5479.41 1.9233e-13
5482.15 1.9179e-13
5484.89 1.9365e-13
5487.64 1.9301e-13
5490.38 1.946e-13
5493.12 1.907e-13
5495.87 1.9325e-13
5498.61 1.9755e-13
5501.35 1.9496e-13
5504.09 1.9326e-13
5506.84 1.8953e-13
5509.58 1.9087e-13
5512.32 1.951e-13
5515.06 1.9596e-13
5517.81 1.9513e-13
5520.55 1.9524e-13
5523.29 1.9488e-13
5526.03 1.9565e-13
5528.78 1.9568e-13
5531.52 1.9045e-13
5534.26 1.9525e-13
5537.0 1.8643e-13
5539.75 1.8963e-13
5542.49 1.9292e-13
5545.23 1.9784e-13
5547.98 1.8932e-13
5550.72 1.9432e-13
5553.46 1.8929e-13
5556.2 1.8947e-13
5558.95 1.9404e-13
5561.69 1.9899e-13
5564.43 1.8878e-13
5567.17 1.8826e-13
5569.92 1.9351e-13
5572.66 1.9538e-13
5575.4 1.879e-13
5578.14 1.9618e-13
5580.89 1.8697e-13
5583.63 1.908e-13
5586.37 1.9643e-13
5589.11 1.8558e-13
5591.86 1.9004e-13
5594.6 1.8999e-13
5597.34 1.8897e-13
5600.08 1.8633e-13
5602.83 1.8541e-13
5605.57 1.8804e-13
5608.31 1.9074e-13
5611.06 1.9275e-13
5613.8 1.9336e-13
5616.54 1.9321e-13
5619.28 1.9508e-13
5622.03 1.9186e-13
5624.77 1.9011e-13
5627.51 1.925e-13
5630.25 1.9257e-13
5633.0 1.9378e-13
5635.74 1.9321e-13
5638.48 1.9447e-13
5641.22 1.9297e-13
5643.97 1.9082e-13
5646.71 1.8993e-13
5649.45 1.909e-13
5652.19 1.9507e-13
5654.94 1.9098e-13
5657.68 1.9233e-13
5660.42 1.955e-13
5663.16 1.9168e-13
5665.91 1.8577e-13
5668.65 1.8852e-13
5671.39 1.9116e-13
5674.14 1.8939e-13
5676.88 1.8826e-13
5679.62 1.92e-13
5682.36 1.958e-13
5685.11 1.9496e-13
5687.85 1.9198e-13
5690.59 1.905e-13
5693.33 1.9004e-13
5696.08 1.8434e-13
5698.82 1.9095e-13
5701.56 1.8619e-13
5704.3 1.9084e-13
5707.05 1.8669e-13
5709.79 1.8852e-13
5712.53 1.8806e-13
5715.27 1.877e-13
5718.02 1.8826e-13
5720.76 1.8853e-13
5723.5 1.8845e-13
5726.25 1.9193e-13
5728.99 1.9146e-13
5731.73 1.9581e-13
5734.47 1.9238e-13
5737.22 1.9271e-13
5739.96 1.9105e-13
5742.7 1.9167e-13
5745.44 1.9029e-13
5748.19 1.9215e-13
5750.93 1.9382e-13
5753.67 1.9208e-13
5756.41 1.9405e-13
5759.16 1.9007e-13
5761.9 1.9065e-13
5764.64 1.8569e-13
5767.38 1.9078e-13
5770.13 1.9178e-13
5772.87 1.9121e-13
5775.61 1.9047e-13
5778.35 1.8528e-13
5781.1 1.861e-13
5783.84 1.8817e-13
5786.58 1.8638e-13
5789.33 1.8493e-13
5792.07 1.8208e-13
5794.81 1.8349e-13
5797.55 1.9163e-13
5800.3 1.8988e-13
5803.04 1.8695e-13
5805.78 1.8449e-13
5808.52 1.9264e-13
5811.27 1.875e-13
5814.01 1.9095e-13
5816.75 1.8752e-13
5819.49 1.8336e-13
5822.24 1.9038e-13
5824.98 1.8981e-13
5827.72 1.9547e-13
5830.46 1.8842e-13
5833.21 1.9174e-13
5835.95 1.9407e-13
5838.69 1.9065e-13
5841.44 1.9603e-13
5844.18 1.8668e-13
5846.92 1.9552e-13
5849.66 1.8995e-13
5852.41 1.9086e-13
5855.15 1.9159e-13
5857.89 1.8328e-13
5860.63 1.8575e-13
5863.38 1.869e-13
5866.12 1.864e-13
5868.86 1.7878e-13
5871.6 1.9004e-13
5874.35 1.8376e-13
5877.09 1.8561e-13
5879.83 1.8354e-13
5882.57 1.843e-13
5885.32 1.8292e-13
5888.06 1.7736e-13
5890.8 1.629e-13
5893.54 1.6323e-13
5896.29 1.6823e-13
5899.03 1.7554e-13
5901.77 1.7253e-13
5904.52 1.7469e-13
5907.26 1.7903e-13
5910.0 1.8316e-13
5912.74 1.8054e-13
5915.49 1.8333e-13
5918.23 1.8868e-13
5920.97 1.864e-13
5923.71 1.8034e-13
5926.46 1.8017e-13
5929.2 1.8122e-13
5931.94 1.7777e-13
5934.68 1.738e-13
5937.43 1.8172e-13
5940.17 1.8328e-13
5942.91 1.8468e-13
5945.65 1.7849e-13
5948.4 1.789e-13
5951.14 1.8121e-13
5953.88 1.8241e-13
5956.62 1.8437e-13
5959.37 1.8532e-13
5962.11 1.882e-13
5964.85 1.8809e-13
5967.6 1.8391e-13
5970.34 1.8307e-13
5973.08 1.8617e-13
5975.82 1.8861e-13
5978.57 1.8648e-13
5981.31 1.8661e-13
5984.05 1.8532e-13
5986.79 1.8389e-13
5989.54 1.8241e-13
5992.28 1.8113e-13
5995.02 1.8426e-13
5997.76 1.8408e-13
6000.51 1.8145e-13
6003.25 1.8119e-13
6005.99 1.7879e-13
6008.73 1.806e-13
6011.48 1.8408e-13
6014.22 1.7732e-13
6016.96 1.7481e-13
6019.71 1.8354e-13
6022.45 1.7709e-13
6025.19 1.7892e-13
6027.93 1.7944e-13
6030.68 1.7574e-13
6033.42 1.8227e-13
6036.16 1.796e-13
6038.9 1.7796e-13
6041.65 1.791e-13
6044.39 1.8115e-13
6047.13 1.8635e-13
6049.87 1.8595e-13
6052.62 1.8524e-13
6055.36 1.8655e-13
6058.1 1.8135e-13
6060.84 1.7713e-13
6063.59 1.789e-13
6066.33 1.8423e-13
6069.07 1.8601e-13
6071.81 1.852e-13
6074.56 1.8003e-13
6077.3 1.7965e-13
6080.04 1.8207e-13
6082.79 1.7969e-13
6085.53 1.8227e-13
6088.27 1.7948e-13
6091.01 1.7861e-13
6093.76 1.7516e-13
6096.5 1.725e-13
6099.24 1.7799e-13
6101.98 1.821e-13
6104.73 1.8028e-13
6107.47 1.7688e-13
6110.21 1.7365e-13
6112.95 1.8136e-13
6115.7 1.7999e-13
6118.44 1.8237e-13
6121.18 1.8372e-13
6123.92 1.7642e-13
6126.67 1.815e-13
6129.41 1.8e-13
6132.15 1.8167e-13
6134.9 1.8066e-13
6137.64 1.8314e-13
6140.38 1.7944e-13
6143.12 1.7357e-13
6145.87 1.7091e-13
6148.61 1.7482e-13
6151.35 1.7947e-13
6154.09 1.8008e-13
6156.84 1.7728e-13
6159.58 1.7867e-13
6162.32 1.6943e-13
6165.06 1.6976e-13
6167.81 1.6916e-13
6170.55 1.6496e-13
6173.29 1.6845e-13
6176.03 1.7744e-13
6178.78 1.7622e-13
6181.52 1.7465e-13
6184.26 1.7539e-13
6187.0 1.7452e-13
6189.75 1.7922e-13
6192.49 1.7192e-13
6195.23 1.7307e-13
6197.98 1.6945e-13
6200.72 1.7072e-13
6203.46 1.7197e-13
6206.2 1.7109e-13
6208.95 1.754e-13
6211.69 1.7844e-13
6214.43 1.7549e-13
6217.17 1.7023e-13
6219.92 1.7438e-13
6222.66 1.7534e-13
6225.4 1.6984e-13
6228.14 1.6439e-13
6230.89 1.6515e-13
6233.63 1.6415e-13
6236.37 1.6277e-13
6239.11 1.7342e-13
6241.86 1.7935e-13
6244.6 1.7617e-13
6247.34 1.7076e-13
6250.08 1.6708e-13
6252.83 1.6736e-13
6255.57 1.6875e-13
6258.31 1.7788e-13
6261.06 1.6706e-13
6263.8 1.6796e-13
6266.54 1.726e-13
6269.28 1.7662e-13
6272.03 1.7379e-13
6274.77 1.7296e-13
6277.51 1.7172e-13
6280.25 1.7358e-13
6283.0 1.7348e-13
6285.74 2.2847e-13
6288.48 2.1158e-13
6291.22 1.7641e-13
6293.97 1.3343e-13
6296.71 1.4039e-13
6299.45 1.6033e-13
6302.19 1.6942e-13
6304.94 1.8173e-13
6307.68 1.8391e-13
6310.42 1.8448e-13
6313.17 1.8561e-13
6315.91 1.7174e-13
6318.65 1.6618e-13
6321.39 1.6573e-13
6324.14 1.7025e-13
6326.88 1.7648e-13
6329.62 1.7139e-13
6332.36 1.6628e-13
6335.11 1.7059e-13
6337.85 1.7182e-13
6340.59 1.6857e-13
6343.33 1.7584e-13
6346.08 1.7185e-13
6348.82 1.7987e-13
6351.56 1.7428e-13
6354.3 1.7592e-13
6357.05 1.7005e-13
6359.79 1.728e-13
6362.53 1.7635e-13
6365.27 1.721e-13
6368.02 1.7485e-13
6370.76 1.6685e-13
6373.5 1.6613e-13
6376.25 1.7793e-13
6378.99 1.7258e-13
6381.73 1.7418e-13
6384.47 1.7239e-13
6387.22 1.7138e-13
6389.96 1.7453e-13
6392.7 1.7442e-13
6395.44 1.7278e-13
6398.19 1.7223e-13
6400.93 1.762e-13
6403.67 1.7486e-13
6406.41 1.712e-13
6409.16 1.7482e-13
6411.9 1.7282e-13
6414.64 1.6882e-13
6417.38 1.694e-13
6420.13 1.7282e-13
6422.87 1.7681e-13
6425.61 1.7113e-13
6428.36 1.7611e-13
6431.1 1.6967e-13
6433.84 1.7071e-13
6436.58 1.7859e-13
6439.33 1.7071e-13
6442.07 1.7193e-13
6444.81 1.7036e-13
6447.55 1.7092e-13
6450.3 1.7112e-13
6453.04 1.7664e-13
6455.78 1.7546e-13
6458.52 1.6819e-13
6461.27 1.71e-13
6464.01 1.6939e-13
6466.75 1.6191e-13
6469.49 1.6923e-13
6472.24 1.7177e-13
6474.98 1.731e-13
6477.72 1.7427e-13
6480.46 1.7897e-13
6483.21 1.7761e-13
6485.95 1.8167e-13
6488.69 1.7485e-13
6491.44 1.6187e-13
6494.18 1.639e-13
6496.92 1.6395e-13
6499.66 1.669e-13
6502.41 1.6281e-13
6505.15 1.5856e-13
6507.89 1.653e-13
6510.63 1.6956e-13
6513.38 1.7072e-13
6516.12 1.796e-13
6518.86 1.793e-13
6521.6 1.7032e-13
6524.35 1.7102e-13
6527.09 1.6844e-13
6529.83 1.6973e-13
6532.57 1.6806e-13
6535.32 1.6435e-13
6538.06 1.6975e-13
6540.8 1.703e-13
6543.54 1.6777e-13
6546.29 1.7138e-13
6549.03 1.8293e-13
6551.77 2.0055e-13
6554.52 2.1259e-13
6557.26 2.1599e-13
6560.0 2.5754e-13
6562.74 3.8167e-13
6565.49 5.5134e-13
6568.23 6.382e-13
6570.97 5.872e-13
6573.71 4.249e-13
6576.46 2.7504e-13
6579.2 1.9976e-13
6581.94 1.9589e-13
6584.68 2.3455e-13
6587.43 2.7761e-13
6590.17 2.914e-13
6592.91 2.6209e-13
6595.65 2.0766e-13
6598.4 1.8297e-13
6601.14 1.656e-13
6603.88 1.6028e-13
6606.63 1.7112e-13
6609.37 1.6488e-13
6612.11 1.7362e-13
6614.85 1.6899e-13
6617.6 1.6592e-13
6620.34 1.7576e-13
6623.08 1.7366e-13
6625.82 1.7153e-13
6628.57 1.6623e-13
6631.31 1.7473e-13
6634.05 1.6873e-13
6636.79 1.6511e-13
6639.54 1.6594e-13
6642.28 1.6305e-13
6645.02 1.7404e-13
6647.76 1.6924e-13
6650.51 1.7114e-13
6653.25 1.6909e-13
6655.99 1.6398e-13
6658.73 1.6554e-13
6661.48 1.6461e-13
6664.22 1.6939e-13
6666.96 1.6949e-13
6669.71 1.6299e-13
6672.45 1.6466e-13
6675.19 1.6857e-13
6677.93 1.6423e-13
6680.68 1.6668e-13
6683.42 1.6792e-13
6686.16 1.7238e-13
6688.9 1.6993e-13
6691.65 1.6565e-13
6694.39 1.6347e-13
6697.13 1.6677e-13
6699.87 1.6759e-13
6702.62 1.6447e-13
6705.36 1.6015e-13
6708.1 1.6214e-13
6710.84 1.655e-13
6713.59 1.7655e-13
6716.33 1.997e-13
6719.07 2.3899e-13
6721.82 2.6517e-13
6724.56 2.55e-13
6727.3 2.2808e-13
6730.04 2.1719e-13
6732.79 2.2612e-13
6735.53 2.3304e-13
6738.27 2.308e-13
6741.01 2.0954e-13
6743.76 1.8688e-13
6746.5 1.6969e-13
6749.24 1.6649e-13
6751.98 1.6035e-13
6754.73 1.6123e-13
6757.47 1.621e-13
6760.21 1.6131e-13
6762.95 1.6405e-13
6765.7 1.6147e-13
6768.44 1.6296e-13
6771.18 1.6865e-13
6773.92 1.6427e-13
6776.67 1.5933e-13
6779.41 1.559e-13
6782.15 1.6426e-13
6784.9 1.615e-13
6787.64 1.6047e-13
6790.38 1.5724e-13
6793.12 1.651e-13
6795.87 1.6313e-13
6798.61 1.6317e-13
6801.35 1.6059e-13
6804.09 1.6037e-13
6806.84 1.5791e-13
6809.58 1.6453e-13
6820.76 1.615e-13
6836.48 1.6186e-13
6852.24 1.6259e-13
6868.04 1.5669e-13
6883.87 1.5849e-13
6899.73 1.5994e-13
6915.64 1.5919e-13
6931.58 1.5954e-13
6947.56 1.61e-13
6963.58 1.5988e-13
6979.63 1.6208e-13
6995.72 1.5948e-13
7011.85 1.5547e-13
7028.01 1.6092e-13
7044.21 1.5652e-13
7060.45 1.5578e-13
7076.73 1.5292e-13
7093.04 1.5081e-13
7109.39 1.5114e-13
7125.78 1.5009e-13
7142.21 1.4904e-13
7158.67 1.4971e-13
7175.18 1.4798e-13
7191.72 1.4261e-13
7208.29 1.4227e-13
7224.91 1.5103e-13
7241.57 1.469e-13
7258.26 1.4756e-13
7274.99 1.5309e-13
7291.76 1.489e-13
7308.57 1.4922e-13
7325.42 1.4955e-13
7342.31 1.5337e-13
7359.23 1.5195e-13
7376.2 1.5405e-13
7393.2 1.5053e-13
7410.24 1.5616e-13
7427.32 1.5329e-13
7444.45 1.5648e-13
7461.61 1.5683e-13
7478.81 1.5324e-13
7496.05 1.5536e-13
7513.33 1.5356e-13
7530.65 1.5354e-13
7548.01 1.5566e-13
7565.41 1.521e-13
7582.85 1.5349e-13
7600.33 1.4929e-13
7617.85 1.4859e-13
7635.41 1.5169e-13
7653.01 1.5028e-13
7670.65 1.3895e-13
7688.34 1.4415e-13
7706.06 1.4215e-13
7723.82 1.4083e-13
7741.63 1.4245e-13
7759.48 1.3951e-13
7777.36 1.4079e-13
7795.29 1.3852e-13
7813.26 1.4173e-13
7831.27 1.4402e-13
7849.33 1.4301e-13
7867.42 1.4465e-13
7885.56 1.4134e-13
7903.74 1.3621e-13
7921.96 1.3433e-13
7940.22 1.3431e-13
7958.52 1.3616e-13
7976.87 1.3868e-13
7995.26 1.3551e-13
8013.69 1.3865e-13
8032.16 1.3863e-13
8050.68 1.4022e-13
8069.24 1.4085e-13
8087.84 1.3763e-13
8106.48 1.3386e-13
8125.17 1.3571e-13
8143.9 1.3632e-13
8162.68 1.332e-13
8181.49 1.4043e-13
8200.35 1.3816e-13
8219.25 1.3815e-13
8238.2 1.1893e-13
8257.19 1.4004e-13
8276.23 1.4067e-13
8295.31 1.3463e-13
8314.43 1.2826e-13
8333.6 1.3367e-13
8352.81 1.3396e-13
8372.06 1.3211e-13
8391.36 1.2819e-13
8410.71 1.333e-13
8430.1 1.3297e-13
8449.53 1.2844e-13
8469.0 1.3142e-13
8488.53 1.308e-13
8508.1 1.0509e-13
8527.71 1.2691e-13
8547.37 1.085e-13
8567.07 1.2864e-13
8586.82 1.3012e-13
8606.62 1.2254e-13
8626.46 1.2859e-13
8646.34 1.2947e-13
8666.27 1.1698e-13
8686.25 1.2248e-13
8706.28 1.256e-13
8726.34 1.2792e-13
8746.46 1.2528e-13
8766.63 1.2355e-13
8786.83 1.2906e-13
8807.09 1.2845e-13
8827.39 1.2814e-13
8847.74 1.2263e-13
8868.14 1.2149e-13
8888.58 1.1844e-13
8909.07 1.2174e-13
8929.61 1.2089e-13
8950.2 1.2171e-13
8970.83 1.1838e-13
8991.5 1.2168e-13
9012.24 1.1276e-13
9033.01 1.0967e-13
9053.83 1.2795e-13
9074.71 1.2618e-13
9095.62 1.1167e-13
9116.59 1.1505e-13
9137.6 1.169e-13
9158.67 1.1878e-13
9179.78 1.1342e-13
9200.94 1.1902e-13
9222.16 1.1235e-13
9243.42 1.1208e-13
9264.72 1.152e-13
9286.08 1.1733e-13
9307.49 1.0674e-13
9328.94 1.1893e-13
9350.45 1.1864e-13
9372.0 1.1672e-13
9393.61 1.1806e-13
9415.26 1.1589e-13
9436.97 1.1857e-13
9458.72 1.172e-13
9480.52 1.1936e-13
9502.38 1.1609e-13
9524.29 1.1608e-13
9546.24 1.1135e-13
9568.25 1.1578e-13
9590.31 1.1791e-13
9612.41 1.1681e-13
9634.57 1.1707e-13
9656.78 1.1598e-13
9679.04 1.1569e-13
9701.35 1.1488e-13
9723.72 1.1355e-13
9746.14 1.1301e-13
9768.6 1.1326e-13
9791.12 1.1194e-13
9813.69 1.1375e-13
9836.31 1.1269e-13
9858.99 1.1293e-13
9881.72 1.1188e-13
9904.5 1.1135e-13
9927.33 1.1185e-13
9950.22 1.1209e-13
9973.15 1.1181e-13
9996.14 1.1128e-13
10019.18 1.105e-13
10065.44 1.0845e-13
10135.2 1.1067e-13
10181.98 1.0963e-13
10228.99 1.0985e-13
10276.2 1.0981e-13
10299.89 1.0929e-13
10491.37 1.0497e-13
10711.06 1.0013e-13
10910.19 9.54e-14
11087.47 9.1106e-14
11293.6 8.9032e-14
11503.56 8.8013e-14
11690.48 8.5221e-14
11907.83 8.1761e-14
12101.31 7.99e-14
12297.94 7.8261e-14
12497.77 7.5779e-14
12700.84 7.3714e-14
12907.21 7.1705e-14
13086.77 7.0073e-14
13299.41 6.7694e-14
13515.51 6.5849e-14
13703.53 6.435e-14
13894.17 6.1737e-14
14087.46 5.8823e-14
14316.36 5.7883e-14
14515.52 5.7883e-14
14683.6 5.5661e-14
14887.86 5.6176e-14
15094.97 5.6305e-14
15304.96 5.6957e-14
15482.19 5.6176e-14
15697.57 5.5024e-14
15915.95 5.2911e-14
16100.25 5.2911e-14
16286.67 5.2426e-14
16513.24 5.1588e-14
16704.46 5.1233e-14
16897.89 5.0298e-14
17093.57 4.938e-14
17291.48 4.7266e-14
17491.72 4.5767e-14
17694.27 4.3707e-14
17899.16 4.1932e-14
18106.41 3.9769e-14
18316.07 3.8686e-14
18485.56 3.7286e-14
18699.6 3.5526e-14
18916.13 3.4558e-14
19091.17 3.3927e-14
19312.24 3.2851e-14
19490.92 3.1445e-14
19716.62 3.0447e-14
19899.06 2.9414e-14
20083.17 2.8877e-14
20315.73 2.7896e-14
20503.72 2.7514e-14
20693.42 2.6826e-14
20884.91 2.6215e-14
21078.14 2.5736e-14
21322.22 2.5151e-14
21519.52 2.4578e-14
21718.62 2.3744e-14
21919.59 2.331e-14
22122.42 2.2623e-14
22275.75 2.2006e-14
22481.88 2.1456e-14
22689.89 2.0871e-14
22899.84 1.873e-14
23111.72 1.8559e-14
23325.58 1.6276e-14
23487.28 1.5295e-14
23704.59 1.5472e-14
23923.93 1.4241e-14
24089.75 1.3695e-14
24312.66 1.3476e-14
24481.18 1.249e-14
24707.71 1.2205e-14
24878.96 1.0341e-14
25109.18 1.0152e-14
25283.21 1.0175e-14
25517.17 1.0036e-14
25694.03 1.0175e-14
25872.15 9.9666e-15
26111.55 9.9208e-15
26292.53 9.6505e-15
26474.77 9.54e-15
26719.75 9.3443e-15
26904.98 9.2161e-15
27091.46 9.0688e-15
27279.24 8.8828e-15
27531.66 8.7407e-15
27722.49 8.5418e-15
27914.67 8.4246e-15
28108.15 8.2518e-15
28303.0 8.1199e-15
28499.18 7.9533e-15
28696.74 7.7902e-15
28895.64 7.6833e-15
29095.95 7.5431e-15
29297.62 7.3884e-15
29500.72 7.2535e-15
29705.2 7.1375e-15
29911.12 6.9911e-15
30118.44 6.8794e-15
30327.2 6.7538e-15
30467.2 6.6765e-15
30678.38 6.6001e-15
30891.05 6.5095e-15
31105.16 6.4202e-15
31320.79 6.3467e-15
31465.35 6.2596e-15
31683.44 6.1737e-15
31903.08 6.1031e-15
32124.2 6.0471e-15
32272.51 6.0193e-15
32496.19 6.075e-15
32721.43 6.3175e-15
32872.49 7.1211e-15
33100.33 7.0396e-15
33329.79 6.0471e-15
33483.62 5.6305e-15
33715.71 5.4144e-15
33871.36 5.2547e-15
34106.12 5.1351e-15
34263.54 5.0298e-15
34501.06 4.938e-15
34660.3 4.8367e-15
34900.57 4.7484e-15
35061.66 4.6617e-15
35304.67 4.5661e-15
35467.66 4.4931e-15
35713.5 4.4111e-15
35878.37 4.3306e-15
36127.05 4.2516e-15
36293.79 4.174e-15
36461.34 4.0978e-15
36714.06 4.023e-15
36883.51 3.9314e-15
37139.2 3.8597e-15
37310.61 3.7979e-15
37482.82 3.7115e-15
37742.66 3.669e-15
37916.86 3.602e-15
38091.86 3.5363e-15
38267.72 3.4798e-15
38532.96 3.4162e-15
38710.85 3.3539e-15
38889.52 3.2927e-15
39069.01 3.2326e-15
39339.84 3.1809e-15
39521.42 3.1156e-15
39703.82 3.0658e-15
39887.12 3.003e-15
40071.22 2.9549e-15
40256.17 2.9077e-15
40535.23 2.8481e-15
40722.32 2.809e-15
40910.27 2.7641e-15
41099.09 2.7199e-15
41288.83 2.6826e-15
41479.4 2.6336e-15
41670.84 2.5915e-15
41863.22 2.55e-15
42056.43 2.5093e-15
42347.93 2.4806e-15
42543.44 2.4353e-15
42739.79 2.4019e-15
42937.06 2.3203e-15
43135.28 2.2364e-15
43334.37 2.2313e-15
43534.38 2.1555e-15
43735.35 2.1113e-15
43937.21 2.0775e-15
44140.0 2.0163e-15
44343.73 1.9932e-15
44548.44 1.9613e-15
44651.13 1.9123e-15
44857.22 1.9035e-15
45064.3 1.8687e-15
45272.29 1.8304e-15
45481.25 1.8178e-15
45691.16 1.797e-15
45902.1 1.7521e-15
46113.96 1.748e-15
46326.8 1.7201e-15
46540.67 1.6965e-15
46647.95 1.6848e-15
46863.25 1.6617e-15
47079.54 1.6389e-15
47296.89 1.6314e-15
47515.19 1.6053e-15
47734.49 1.5906e-15
47954.86 1.5723e-15
48065.4 1.5472e-15
48287.24 1.5436e-15
48510.11 1.5225e-15
48734.06 1.5016e-15
48846.39 1.4844e-15
49071.84 1.4674e-15
49298.33 1.4539e-15
49525.92 1.434e-15
49754.51 1.4274e-15
49869.19 1.4078e-15
50099.42 1.3934e-15
50330.65 1.3791e-15
50446.66 1.3594e-15
50679.5 1.3485e-15
50796.32 1.3416e-15
50913.46 1.3377e-15
51030.82 1.3278e-15
51148.45 1.3179e-15
51266.35 1.3081e-15
51384.52 1.3013e-15
51502.97 1.2946e-15
51621.75 1.2879e-15
51740.74 1.2842e-15
51860.0 1.2746e-15
51979.54 1.2681e-15
52099.36 1.2615e-15
52219.45 1.255e-15
52339.82 1.2456e-15
52460.53 1.242e-15
52581.45 1.2384e-15
52702.66 1.2349e-15
52824.14 1.2256e-15
52945.9 1.2165e-15
53067.95 1.2102e-15
53190.33 1.2039e-15
53312.94 1.2004e-15
53435.83 1.1969e-15
53559.0 1.1907e-15
53682.46 1.1873e-15
53806.2 1.1811e-15
53930.23 1.1777e-15
54054.6 1.1743e-15
54179.2 1.1682e-15
54304.09 1.1621e-15
54429.26 1.1587e-15
54554.72 1.158e-15
54680.48 1.152e-15
54806.52 1.1486e-15
54932.91 1.1453e-15
55059.54 1.1419e-15
55186.45 1.1412e-15
55313.66 1.1431e-15
55441.16 1.1398e-15
55568.96 1.1338e-15
55697.11 1.1331e-15
55825.5 1.1324e-15
55954.18 1.1317e-15
56083.16 1.131e-15
56212.43 1.1328e-15
56342.01 1.1295e-15
56471.88 1.1314e-15
56602.11 1.1359e-15
56732.58 1.1352e-15
56863.36 1.137e-15
56994.43 1.1389e-15
57125.81 1.1461e-15
57257.48 1.1506e-15
57389.53 1.1552e-15
57521.82 1.1597e-15
57654.41 1.167e-15
57787.31 1.1743e-15
57920.51 1.1844e-15
58054.02 1.1918e-15
58187.84 1.202e-15
58322.03 1.218e-15
58456.47 1.2284e-15
58591.21 1.2447e-15
58726.27 1.2611e-15
58861.64 1.2807e-15
58997.32 1.3037e-15
59085.89 1.5592e-15
59394.92 9.6281e-16
59703.94 1.0238e-15
60012.95 1.6441e-15
60321.98 1.6154e-15
60631.0 1.8628e-15
60940.02 1.6546e-15
61249.05 3.088e-15
61558.07 4.8449e-15
61867.08 5.805e-15
62176.11 6.3323e-15
62485.13 5.7421e-15
62794.15 4.6867e-15
63103.17 3.546e-15
63412.2 2.9227e-15
63721.22 2.987e-15
64030.24 3.1299e-15
64339.26 2.5382e-15
64648.29 2.1105e-15
64957.3 1.9176e-15
65266.32 1.8296e-15
65575.35 1.9655e-15
65884.37 1.8996e-15
66193.39 2.0727e-15
66502.42 1.8656e-15
66811.43 1.678e-15
67120.45 1.9157e-15
67429.48 2.1031e-15
67738.5 2.5935e-15
68047.53 2.1285e-15
68356.55 2.3e-15
68665.57 2.0089e-15
68974.59 1.7141e-15
69283.61 2.0721e-15
69592.63 2.7386e-15
69901.65 3.1521e-15
70210.67 2.2501e-15
70519.7 1.7127e-15
70828.72 2.371e-15
71137.74 2.1695e-15
71446.77 2.4336e-15
71755.78 1.9858e-15
72064.81 2.8217e-15
72373.83 2.2528e-15
72682.85 3.3151e-15
72991.88 3.909e-15
73300.89 3.5196e-15
73609.91 3.2913e-15
73918.94 3.7152e-15
74227.96 3.5464e-15
74536.98 4.1477e-15
74846.0 4.2619e-15
75134.8 4.6755e-15
75155.03 5.2502e-15
75464.05 5.7973e-15
75754.06 5.6408e-15
75773.07 5.4618e-15
76373.34 5.5673e-15
76992.61 5.5471e-15
77611.89 5.1295e-15
78231.16 4.9727e-15
78850.45 4.4471e-15
79469.72 3.5892e-15
80088.99 3.2403e-15
80708.27 2.6623e-15
81327.54 2.6262e-15
81946.81 2.1292e-15
82566.09 2.403e-15
83185.36 2.2613e-15
83804.65 2.2621e-15
84423.92 2.6203e-15
85043.2 2.6617e-15
85662.47 2.9912e-15
86281.75 2.8545e-15
86901.02 2.5874e-15
87520.29 2.1165e-15
88139.57 1.5569e-15
88758.84 1.3584e-15
89378.11 1.2564e-15
89997.39 1.285e-15
90616.66 9.3431e-16
91235.95 7.9146e-16
91855.22 5.3012e-16
92474.5 6.2026e-16
93093.77 8.2897e-16
93713.04 6.5333e-16
94332.32 7.4232e-16
94951.59 7.8001e-16
95570.87 7.7357e-16
96190.14 8.0627e-16
96809.41 8.9265e-16
97428.7 6.6858e-16
98047.98 7.5648e-16
98667.25 6.3936e-16
99286.53 6.0545e-16
99905.76 4.9892e-16
100525.08 5.9888e-16
101144.31 5.42e-16
101763.65 6.2838e-16
102382.89 6.4533e-16
103002.21 6.433e-16
103621.46 6.9346e-16
104240.69 6.9254e-16
104860.01 6.6954e-16
105479.25 8.4375e-16
106098.59 8.9799e-16
106717.82 8.3723e-16
107337.05 9.0122e-16
107956.38 8.3301e-16
108575.62 1.0111e-15
109194.95 1.1335e-15
109814.18 1.3385e-15
110433.51 1.4535e-15
111052.75 1.8371e-15
111671.98 2.6982e-15
112291.31 3.5299e-15
112910.54 3.3641e-15
113529.88 2.5623e-15
114149.11 2.0087e-15
114768.44 1.6213e-15
115387.67 1.3721e-15
116006.9 1.2303e-15
116626.25 1.0691e-15
117245.48 1.0529e-15
117864.8 1.0972e-15
118484.03 1.024e-15
119103.37 1.1396e-15
119722.61 1.1339e-15
120341.84 1.0624e-15
120961.18 1.0047e-15
121580.41 9.5339e-16
122199.73 1.0276e-15
122818.97 1.0529e-15
123438.21 1.1326e-15
124057.54 1.06e-15
124676.77 1.1931e-15
125296.1 1.2188e-15
125915.34 1.3618e-15
126534.67 1.4017e-15
127153.9 1.6348e-15
127773.14 2.1513e-15
128392.47 1.9148e-15
129011.7 1.1455e-15
129631.03 8.1138e-16
130250.26 6.9494e-16
130869.5 6.7013e-16
131488.83 6.5549e-16
132108.07 6.8228e-16
132727.4 6.7026e-16
133346.62 5.7734e-16
133965.96 6.2033e-16
134585.2 7.2441e-16
135204.44 6.4145e-16
135823.77 6.571e-16
136442.99 6.1623e-16
137062.33 5.7132e-16
137681.56 5.5744e-16
138300.9 4.9553e-16
138920.12 5.3272e-16
139539.36 5.782e-16
140158.69 4.9722e-16
140777.93 4.9004e-16
141397.25 6.0613e-16
142016.49 5.4361e-16
142635.82 4.835e-16
143255.06 4.3605e-16
143874.28 4.798e-16
144493.63 4.6515e-16
145026.49 4.4779e-16
145940.92 4.5106e-16
146855.46 4.2814e-16
147769.91 4.3055e-16
148684.34 4.2542e-16
149598.78 4.1247e-16
150513.32 4.1957e-16
151427.76 4.017e-16
152342.19 4.3045e-16
153256.73 4.1833e-16
154171.17 4.6272e-16
155085.6 7.6071e-16
156000.05 7.9974e-16
156914.59 5.0771e-16
157829.03 4.547e-16
158743.46 4.7511e-16
159658.0 4.9119e-16
160572.44 4.786e-16
161486.87 4.829e-16
162401.41 5.4415e-16
163315.85 6.8891e-16
164230.28 8.5053e-16
165144.73 7.9199e-16
166059.28 6.7728e-16
166973.69 6.8131e-16
167888.14 6.7871e-16
168802.58 6.809e-16
169717.12 7.8395e-16
170631.57 8.5259e-16
171546.01 7.5222e-16
172460.55 7.0928e-16
173374.98 7.4163e-16
174289.42 6.9264e-16
175203.96 6.0644e-16
176118.39 5.4403e-16
177032.83 5.7158e-16
177947.26 5.5083e-16
178861.8 5.1585e-16
179776.25 4.7832e-16
180690.67 4.2258e-16
181605.21 4.3787e-16
182519.66 4.3557e-16
183434.09 4.2366e-16
184348.62 4.2906e-16
185263.07 4.3589e-16
186177.51 6.5596e-16
187091.94 1.0815e-15
188006.48 7.5996e-16
188920.92 5.0936e-16
189835.35 4.2471e-16
190749.91 4.4982e-16
191664.35 3.9699e-16
192578.77 3.7398e-16
193493.21 3.7659e-16
194407.76 3.9507e-16
195322.19 4.0152e-16
196236.64 3.8796e-16
197151.18 3.734e-16
198065.6 3.9203e-16
198980.05 3.8465e-16
199894.49 3.8205e-16
200809.03 3.6741e-16
201723.46 3.7745e-16
202637.91 3.8464e-16
203552.44 3.6515e-16
204649.58 3.5386e-16
206410.16 3.8483e-16
208171.8 3.6275e-16
209934.36 3.6369e-16
211698.0 3.6379e-16
213462.66 3.7943e-16
215228.4 3.5432e-16
216995.04 3.7183e-16
218762.78 3.7284e-16
220531.53 3.7174e-16
222301.36 3.6345e-16
224072.2 3.7472e-16
225844.03 3.7132e-16
227616.94 3.7497e-16
229390.87 3.8204e-16
231165.8 3.684e-16
232941.81 3.7087e-16
234718.84 3.8309e-16
236496.94 3.7375e-16
238276.15 3.7242e-16
240056.36 3.679e-16
241837.57 3.7356e-16
243619.88 3.6026e-16
245403.17 3.6746e-16
247187.68 3.5991e-16
248973.08 3.7236e-16
250759.55 3.7685e-16
252547.14 3.6995e-16
254335.83 3.752e-16
256125.51 3.7671e-16
257916.28 3.9541e-16
259708.16 4.1057e-16
261501.13 3.7678e-16
263295.12 3.6131e-16
265090.16 3.4822e-16
266886.35 3.467e-16
268683.49 3.5537e-16
270481.86 3.4992e-16
272281.21 3.4873e-16
274081.67 3.5299e-16
275883.23 3.4145e-16
277685.88 3.4767e-16
279489.61 3.5467e-16
281294.44 4.0477e-16
283100.39 3.9153e-16
284907.44 3.5077e-16
286715.57 3.4372e-16
288524.79 3.4351e-16
290335.11 3.4882e-16
292146.54 3.5322e-16
293959.07 3.4525e-16
295772.69 3.4951e-16
297587.49 3.5539e-16
299403.41 3.556e-16
301220.3 3.4995e-16
303038.41 3.5392e-16
304857.6 3.5782e-16
306678.02 3.5588e-16
308499.43 3.5612e-16
310322.02 3.523e-16
312145.8 3.5838e-16
313970.6 3.5041e-16
315796.59 3.6688e-16
317623.74 3.7684e-16
319451.91 3.6951e-16
321281.3 3.7013e-16
323111.9 3.7623e-16
324943.53 3.6924e-16
326776.29 3.7555e-16
328610.29 3.7795e-16
330445.44 3.9478e-16
332281.69 4.4509e-16
334119.05 7.3214e-16
335957.6 7.4604e-16
337797.37 4.3153e-16
339638.29 3.8752e-16
341480.33 3.8298e-16
343323.49 3.7997e-16
345167.9 4.3073e-16
347013.46 6.6974e-16
348860.18 9.0813e-16
