# col1 col2
# An Atlas of Galaxy Spectral Energy Distributions from the Ultraviolet to the Mid-Infrared
# Brown et al. (2014)
# http://dx.doi.org/10.5072/03/529D3551F0117
# 
# Column 1 : Restframe Wavelength (Angstrom)
# Column 2 : Flux per unit wavelength (ergs/s/cm^2/Angstrom)
# Column 3 : Observed wavelength (Angstrom)
# Column 4 : Source (0 = model, 1 = Optical Spectrum, 2 = Akari, 3 = Spitzer IRS)
# 
102.09 1.0557e-20
103.98 1.2461e-20
105.92 1.5189e-20
107.89 1.8687e-20
109.89 2.7832e-20
114.02 3.8774e-20
118.02 5.1114e-20
121.05 1.5154e-19
125.02 1.9613e-19
127.05 2.1905e-19
127.93 2.3364e-19
130.91 2.7198e-19
132.12 3.1228e-19
133.96 3.4319e-19
137.08 4.3106e-19
139.95 4.9379e-19
142.88 9.8071e-19
146.88 1.8558e-18
151.0 2.1555e-18
154.87 2.5092e-18
158.84 2.9211e-18
162.17 3.2549e-18
165.95 3.7544e-18
169.81 4.2613e-18
172.97 4.694e-18
177.0 5.291e-18
179.87 5.7616e-18
181.96 6.103e-18
186.19 6.8162e-18
190.97 7.7543e-18
194.07 8.4051e-18
198.14 9.2585e-18
201.82 1.0199e-17
205.1 1.0928e-17
209.88 1.1764e-17
215.76 1.3821e-17
219.77 1.5016e-17
222.83 1.5796e-17
226.97 1.7161e-17
230.13 2.664e-17
233.87 4.5555e-17
239.86 6.2884e-17
246.02 6.2884e-17
251.75 7.0071e-17
257.02 5.8687e-17
260.0 7.2534e-17
264.22 7.8984e-17
269.13 8.176e-17
274.14 8.4439e-17
279.23 8.6207e-17
283.77 8.9442e-17
289.71 8.8622e-17
295.78 9.216e-17
301.28 9.0269e-17
308.3 9.5618e-17
317.66 1.0293e-16
328.07 1.0704e-16
338.04 1.0928e-16
348.31 1.1157e-16
357.25 1.1522e-16
366.41 1.2038e-16
374.94 1.2205e-16
384.56 1.19e-16
395.34 1.2634e-16
404.55 1.3048e-16
413.97 1.3108e-16
421.66 1.3048e-16
430.49 1.3018e-16
440.52 1.3321e-16
450.78 1.3352e-16
460.22 1.3229e-16
469.86 1.326e-16
479.7 1.3475e-16
489.74 1.3199e-16
500.0 1.36e-16
505.79 1.4046e-16
511.64 1.9613e-16
519.96 1.9749e-16
529.62 1.9794e-16
539.47 1.8903e-16
549.5 2.1604e-16
559.71 2.4408e-16
570.12 2.6335e-16
579.38 2.5618e-16
590.16 2.8677e-16
599.75 2.848e-16
609.49 3.0587e-16
619.39 3.5607e-16
629.46 3.7286e-16
639.69 3.8419e-16
650.08 4.1835e-16
657.61 4.3206e-16
665.22 4.6083e-16
674.48 4.7593e-16
685.44 4.6509e-16
694.97 5.6956e-16
704.64 5.377e-16
716.09 6.4795e-16
726.05 6.7693e-16
734.46 7.0557e-16
744.67 7.7186e-16
755.03 8.176e-16
765.54 8.4633e-16
774.4 9.3442e-16
785.18 9.9207e-16
794.27 1.0484e-15
805.32 1.1004e-15
814.64 1.1469e-15
824.08 1.2489e-15
835.54 1.0753e-15
845.21 1.3383e-15
855.0 1.3885e-15
864.9 1.4947e-15
874.92 1.5942e-15
885.05 1.7161e-15
895.3 1.8094e-15
905.66 1.8431e-15
914.04 2.5736e-15
924.63 1.4947e-14
935.33 3.2029e-14
943.99 6.047e-14
954.92 8.2897e-14
965.98 9.6725e-14
974.92 1.8991e-14
983.94 8.8418e-14
995.33 8.9236e-14
1004.54 1.2065e-13
1013.83 1.1469e-13
1025.57 5.0413e-14
1035.06 8.5811e-14
1044.64 1.5016e-13
1054.31 1.464e-13
1064.06 1.2038e-13
1073.91 1.3981e-13
1083.84 1.1522e-13
1093.87 1.4539e-13
1103.99 1.3694e-13
1114.21 1.326e-13
1124.52 1.1845e-13
1134.92 1.4539e-13
1145.43 1.3321e-13
1156.02 1.3949e-13
1164.04 1.4274e-13
1174.81 1.0105e-13
1185.68 1.3981e-13
1193.9 1.0803e-13
1204.94 8.1384e-14
1216.09 5.0997e-14
1224.52 1.0175e-13
1235.85 1.4013e-13
1244.42 1.4844e-13
1255.93 1.4274e-13
1264.64 1.3018e-13
1276.34 1.5189e-13
1285.19 1.5472e-13
1294.1 1.2751e-13
1306.07 1.2988e-13
1315.12 1.5189e-13
1324.24 1.4439e-13
1336.49 1.3229e-13
1345.76 1.481e-13
1355.09 1.4472e-13
1364.48 1.3321e-13
1373.94 1.3538e-13
1383.46 1.3663e-13
1396.26 1.1496e-13
1405.94 1.1955e-13
1415.69 1.278e-13
1425.5 1.278e-13
1435.38 1.2988e-13
1442.01 1.3383e-13
1448.66 1.3352e-13
1455.35 1.3048e-13
1465.44 1.2261e-13
1475.59 1.2318e-13
1485.82 1.2346e-13
1496.12 1.2346e-13
1506.49 1.1683e-13
1513.45 1.0581e-13
1516.93 1.1106e-13
1523.94 1.1106e-13
1534.5 9.8071e-14
1545.14 1.0012e-13
1555.85 9.6725e-14
1566.63 1.0152e-13
1573.86 1.0729e-13
1584.77 1.0953e-13
1595.76 1.108e-13
1606.82 1.0903e-13
1614.23 1.0878e-13
1625.42 1.0581e-13
1636.69 1.1106e-13
1644.25 1.1106e-13
1655.64 1.0679e-13
1663.29 1.126e-13
1670.96 1.0606e-13
1678.68 1.1364e-13
1686.42 1.1469e-13
1694.21 1.0953e-13
1705.95 1.063e-13
1713.83 1.0128e-13
1725.71 1.0036e-13
1733.67 1.0533e-13
1745.69 1.0293e-13
1753.75 1.0655e-13
1765.9 1.0128e-13
1774.05 1.0082e-13
1786.35 1.0269e-13
1794.6 1.0606e-13
1807.04 1.063e-13
1815.38 9.8297e-14
1823.76 1.0105e-13
1836.4 9.8297e-14
1844.87 9.1315e-14
1853.39 9.0686e-14
1866.24 9.2798e-14
1874.85 9.8524e-14
1883.51 9.0478e-14
1896.56 8.5811e-14
1905.31 9.216e-14
1914.11 8.7809e-14
1922.95 8.5416e-14
1936.27 8.9442e-14
1945.21 9.1736e-14
1954.19 8.5024e-14
1967.74 9.1525e-14
1976.82 9.4524e-14
1985.94 8.9442e-14
1995.11 8.7406e-14
2004.32 9.0062e-14
2013.57 8.8418e-14
2022.86 9.1948e-14
2036.89 8.6207e-14
2046.29 8.7809e-14
2055.73 8.2707e-14
2065.22 8.4828e-14
2074.76 9.0269e-14
2079.54 8.4439e-14
2084.33 8.7607e-14
2093.95 8.3472e-14
2103.62 8.5416e-14
2113.33 8.5811e-14
2123.08 8.6804e-14
2132.88 8.4051e-14
2142.73 8.2707e-14
2152.62 8.5416e-14
2162.55 8.3857e-14
2172.54 8.328e-14
2182.56 8.1572e-14
2192.64 8.3664e-14
2202.76 8.2327e-14
2212.93 8.0268e-14
2223.14 7.826e-14
2233.4 8.0268e-14
2243.71 7.8984e-14
2254.07 7.6832e-14
2264.47 7.7901e-14
2274.92 7.8441e-14
2285.42 7.8794e-14
2295.97 7.5236e-14
2306.57 7.592e-14
2317.22 7.3838e-14
2322.56 6.3277e-14
2333.28 7.0986e-14
2344.05 7.0162e-14
2354.87 7.1619e-14
2365.74 6.9495e-14
2376.66 6.9644e-14
2387.63 6.7423e-14
2393.13 6.9147e-14
2404.18 6.7406e-14
2415.28 6.7705e-14
2426.42 6.8794e-14
2437.62 6.6753e-14
2443.24 6.8302e-14
2454.52 6.7664e-14
2465.85 6.6878e-14
2477.23 6.5646e-14
2482.94 6.6247e-14
2494.4 6.0966e-14
2505.92 6.6224e-14
2511.69 6.2658e-14
2517.48 6.4556e-14
2523.29 6.3081e-14
2534.93 6.2924e-14
2546.64 6.1907e-14
2552.51 6.3489e-14
2564.29 6.2607e-14
2576.12 6.3906e-14
2582.06 6.346e-14
2593.98 6.3012e-14
2605.95 6.1708e-14
2617.98 6.1131e-14
2624.02 6.1549e-14
2636.13 6.1964e-14
2642.21 6.3547e-14
2654.4 6.3828e-14
2666.66 6.1084e-14
2672.8 6.1928e-14
2685.14 6.1774e-14
2697.53 5.9941e-14
2703.75 6.0212e-14
2716.23 5.8965e-14
2722.49 5.8419e-14
2735.06 5.922e-14
2747.68 5.6284e-14
2754.02 5.6408e-14
2766.73 5.6919e-14
2773.11 5.7838e-14
2785.91 5.6771e-14
2792.33 5.2612e-14
2805.22 5.4075e-14
2818.17 5.6612e-14
2824.66 5.6736e-14
2837.7 5.4926e-14
2844.24 5.4416e-14
2857.37 5.3782e-14
2863.96 5.5156e-14
2877.18 5.5018e-14
2883.81 5.476e-14
2897.12 5.4748e-14
2910.49 5.5755e-14
2930.67 5.4468e-14
2950.98 5.3334e-14
2971.44 5.3195e-14
2992.04 5.2569e-14
3012.78 5.207e-14
3026.68 5.1819e-14
3047.66 5.1328e-14
3068.79 5.1075e-14
3090.06 5.0242e-14
3111.48 5.0225e-14
3133.05 4.9291e-14
3147.51 4.8828e-14
3169.33 4.8587e-14
3191.29 4.703e-14
3213.41 4.7231e-14
3228.25 4.6145e-14
3250.62 4.7095e-14
3273.16 4.7404e-14
3288.26 4.685e-14
3311.06 4.6085e-14
3318.69 4.672e-14
3326.34 4.693e-14
3334.01 4.725e-14
3341.7 4.5222e-14
3349.4 4.7348e-14
3357.12 4.5211e-14
3364.86 4.3171e-14
3372.62 4.3066e-14
3380.39 4.478e-14
3388.18 4.5607e-14
3395.99 4.5183e-14
3403.82 4.497e-14
3411.67 4.384e-14
3419.53 4.4139e-14
3427.42 4.485e-14
3435.32 4.5052e-14
3443.24 4.2722e-14
3451.17 4.432e-14
3459.13 4.3107e-14
3467.1 4.2805e-14
3475.1 4.2997e-14
3483.11 4.25e-14
3491.14 4.3284e-14
3499.19 4.1906e-14
3507.25 4.2581e-14
3515.34 4.113e-14
3523.44 4.2473e-14
3531.56 4.2078e-14
3539.7 4.3052e-14
3547.86 4.3746e-14
3556.04 4.2942e-14
3564.24 4.2838e-14
3572.45 4.0905e-14
3580.69 4.0061e-14
3588.95 3.8165e-14
3597.22 4.0421e-14
3605.51 4.0883e-14
3613.82 3.9856e-14
3622.15 4.0127e-14
3630.5 4.3992e-14
3638.87 4.1335e-14
3644.89 4.1966e-14
3647.62 4.169e-14
3650.34 4.0563e-14
3653.07 4.2735e-14
3655.79 4.3925e-14
3658.52 4.175e-14
3661.24 4.138e-14
3663.97 3.9217e-14
3666.69 3.5792e-14
3669.41 3.4914e-14
3672.14 3.8457e-14
3674.86 3.4115e-14
3677.59 4.0159e-14
3680.31 3.9724e-14
3683.04 4.3876e-14
3685.76 3.6511e-14
3688.49 3.9723e-14
3691.21 4.4027e-14
3693.94 3.8753e-14
3696.66 3.9297e-14
3699.38 4.353e-14
3702.11 4.1653e-14
3704.83 4.4009e-14
3707.56 3.8601e-14
3710.28 2.9098e-14
3713.01 3.6347e-14
3715.73 4.1327e-14
3718.46 4.7999e-14
3721.18 6.9715e-14
3723.91 1.3022e-13
3726.63 2.0946e-13
3729.36 2.5276e-13
3732.08 2.1849e-13
3734.8 1.3719e-13
3737.53 7.1844e-14
3740.25 4.752e-14
3742.98 4.1485e-14
3745.7 4.108e-14
3748.43 4.2196e-14
3751.15 4.0002e-14
3753.88 4.3582e-14
3756.6 4.4753e-14
3759.33 4.5769e-14
3762.05 4.5745e-14
3764.77 4.6212e-14
3767.5 3.8526e-14
3770.22 4.1161e-14
3772.95 4.4505e-14
3775.67 4.7121e-14
3778.4 4.7433e-14
3781.12 4.8704e-14
3783.85 4.6574e-14
3786.57 4.8124e-14
3789.3 4.7622e-14
3792.02 4.3562e-14
3794.74 4.3437e-14
3797.47 4.7999e-14
3800.19 4.2986e-14
3802.92 4.0353e-14
3805.64 4.7537e-14
3808.37 4.7001e-14
3811.09 4.6239e-14
3813.82 4.753e-14
3816.54 4.6634e-14
3819.27 4.5987e-14
3821.99 4.4609e-14
3824.72 4.268e-14
3827.44 4.6637e-14
3830.16 4.1963e-14
3832.89 3.8922e-14
3835.61 3.8952e-14
3838.34 4.8285e-14
3841.06 4.2227e-14
3843.79 4.3417e-14
3846.51 4.472e-14
3849.24 4.7785e-14
3851.96 4.7026e-14
3854.69 5.1328e-14
3857.41 4.8937e-14
3860.13 4.8812e-14
3862.86 5.6078e-14
3865.58 5.3942e-14
3868.31 5.7301e-14
3871.03 6.2214e-14
3873.76 5.4932e-14
3876.48 5.1842e-14
3879.21 5.1412e-14
3881.93 4.9494e-14
3884.66 4.7491e-14
3887.38 5.3923e-14
3890.11 5.5185e-14
3892.83 5.25e-14
3895.55 5.025e-14
3898.28 4.4844e-14
3901.0 4.6937e-14
3903.73 4.6066e-14
3906.45 4.6711e-14
3909.18 4.8542e-14
3911.9 4.7745e-14
3914.63 4.8619e-14
3917.35 5.2308e-14
3920.08 5.2488e-14
3922.8 4.8292e-14
3925.52 4.8633e-14
3928.25 4.4852e-14
3930.97 4.5049e-14
3933.7 4.0838e-14
3936.42 3.9911e-14
3939.15 4.3104e-14
3941.87 4.3754e-14
3944.6 5.0433e-14
3947.32 4.8848e-14
3950.05 4.9891e-14
3952.77 4.89e-14
3955.5 5.2136e-14
3958.22 4.6477e-14
3960.94 4.8099e-14
3963.67 4.345e-14
3966.39 4.7986e-14
3969.12 4.8313e-14
3971.84 5.6303e-14
3974.57 4.721e-14
3977.29 4.9749e-14
3980.02 4.3215e-14
3982.74 5.1245e-14
3985.47 4.9564e-14
3988.19 5.3487e-14
3990.91 5.3323e-14
3993.64 5.3577e-14
3996.36 5.9158e-14
3999.09 5.3399e-14
4001.81 5.5919e-14
4004.54 5.411e-14
4007.26 5.7917e-14
4009.99 5.4643e-14
4012.71 5.7434e-14
4015.44 5.3901e-14
4018.16 5.6147e-14
4020.89 5.564e-14
4023.61 5.6783e-14
4026.33 5.7371e-14
4029.06 5.4391e-14
4031.78 5.5748e-14
4034.51 5.6143e-14
4037.23 5.2441e-14
4039.96 5.5271e-14
4042.68 5.4147e-14
4045.41 5.1755e-14
4048.13 5.3777e-14
4050.86 5.064e-14
4053.58 5.4032e-14
4056.3 4.9825e-14
4059.03 5.2892e-14
4061.75 5.3917e-14
4064.48 5.0107e-14
4067.2 5.3176e-14
4069.93 5.5347e-14
4072.65 5.4737e-14
4075.38 5.4144e-14
4078.1 4.8857e-14
4080.83 5.076e-14
4083.55 5.082e-14
4086.27 5.0286e-14
4089.0 4.9525e-14
4091.72 4.7152e-14
4094.45 4.7297e-14
4097.17 5.0314e-14
4099.9 5.7302e-14
4102.62 6.2352e-14
4105.35 6.1829e-14
4108.07 5.5146e-14
4110.8 4.9865e-14
4113.52 4.881e-14
4116.25 4.9816e-14
4118.97 5.0089e-14
4121.69 5.045e-14
4124.42 4.8338e-14
4127.14 5.1453e-14
4129.87 5.0093e-14
4132.59 4.9926e-14
4135.32 4.9808e-14
4138.04 4.9628e-14
4140.77 4.9662e-14
4143.49 5.0299e-14
4146.22 5.1272e-14
4148.94 5.1801e-14
4151.66 5.2736e-14
4154.39 4.9715e-14
4157.11 5.2679e-14
4159.84 5.055e-14
4162.56 5.1106e-14
4165.29 5.2411e-14
4168.01 5.2245e-14
4170.74 5.2172e-14
4173.46 5.2134e-14
4176.19 5.0789e-14
4178.91 5.2594e-14
4181.64 5.4001e-14
4184.36 5.1001e-14
4187.08 4.9506e-14
4189.81 5.1335e-14
4192.53 5.4223e-14
4195.26 5.463e-14
4197.98 5.4036e-14
4200.71 5.158e-14
4203.43 5.3625e-14
4206.16 5.31e-14
4208.88 5.2732e-14
4211.61 4.9152e-14
4214.33 5.1799e-14
4217.05 5.0669e-14
4219.78 5.0762e-14
4222.5 5.0605e-14
4225.23 5.0912e-14
4227.95 5.0361e-14
4230.68 5.0238e-14
4233.4 5.0157e-14
4236.13 5.1203e-14
4238.85 4.888e-14
4241.58 4.9117e-14
4244.3 4.941e-14
4247.03 5.1537e-14
4249.75 5.0462e-14
4252.47 4.9103e-14
4255.2 5.0693e-14
4257.92 4.8512e-14
4260.65 4.8701e-14
4263.37 4.996e-14
4266.1 4.8088e-14
4268.82 4.8635e-14
4271.55 4.9271e-14
4274.27 4.7941e-14
4277.0 4.9181e-14
4279.72 4.9894e-14
4282.44 4.9311e-14
4285.17 5.0721e-14
4287.89 4.9e-14
4290.62 4.7527e-14
4293.34 4.7049e-14
4296.07 4.5553e-14
4298.79 4.567e-14
4301.52 4.4874e-14
4304.24 4.3934e-14
4306.97 4.4347e-14
4309.69 4.3869e-14
4312.42 4.5262e-14
4315.14 4.8894e-14
4317.86 4.851e-14
4320.59 4.8881e-14
4323.31 4.6535e-14
4326.04 4.6076e-14
4328.76 4.5265e-14
4331.49 4.7072e-14
4334.21 5.0575e-14
4336.94 5.8466e-14
4339.66 7.7341e-14
4342.39 8.6282e-14
4345.11 8.0005e-14
4347.83 6.6089e-14
4350.56 5.2005e-14
4353.28 4.7922e-14
4356.01 4.6689e-14
4358.73 4.9806e-14
4361.46 5.0244e-14
4364.18 5.2932e-14
4366.91 5.1083e-14
4369.63 5.0072e-14
4372.36 5.0444e-14
4375.08 4.725e-14
4377.8 5.1799e-14
4380.53 4.7463e-14
4383.25 4.6048e-14
4385.98 4.7738e-14
4388.7 4.8235e-14
4391.43 4.9523e-14
4394.15 4.7402e-14
4396.88 4.9814e-14
4399.6 4.8283e-14
4402.33 5.0828e-14
4405.05 4.8654e-14
4407.78 4.8452e-14
4410.5 5.0036e-14
4413.22 5.0662e-14
4415.95 5.0802e-14
4418.67 5.0612e-14
4421.4 4.895e-14
4424.12 4.8441e-14
4426.85 5.1611e-14
4429.57 5.1149e-14
4432.3 4.9894e-14
4435.02 4.8957e-14
4437.75 5.0171e-14
4440.47 5.2515e-14
4443.19 5.0153e-14
4445.92 4.8168e-14
4448.64 4.8906e-14
4451.37 5.2094e-14
4454.09 5.2308e-14
4456.82 4.8159e-14
4459.54 4.7257e-14
4462.27 4.8944e-14
4464.99 4.7823e-14
4467.72 5.0783e-14
4470.44 5.1091e-14
4473.17 5.3819e-14
4475.89 5.2241e-14
4478.61 5.2481e-14
4481.34 5.068e-14
4484.06 4.9708e-14
4486.79 4.9418e-14
4489.51 5.2717e-14
4492.24 5.1067e-14
4494.96 5.0371e-14
4497.69 5.0124e-14
4500.41 5.1069e-14
4503.14 5.1787e-14
4505.86 5.3708e-14
4508.58 5.2865e-14
4511.31 5.0782e-14
4514.03 5.253e-14
4516.76 4.9601e-14
4519.48 5.0606e-14
4522.21 5.0944e-14
4524.93 5.1332e-14
4527.66 4.7216e-14
4530.38 4.9665e-14
4533.11 4.8758e-14
4535.83 5.1503e-14
4538.56 4.9169e-14
4541.28 5.2286e-14
4544.0 5.044e-14
4546.73 5.0566e-14
4549.45 4.9383e-14
4552.18 4.8205e-14
4554.9 4.7649e-14
4557.63 4.798e-14
4560.35 4.9522e-14
4563.08 5.208e-14
4565.8 5.3603e-14
4568.53 5.3445e-14
4571.25 5.1433e-14
4573.97 5.1573e-14
4576.7 5.2785e-14
4579.42 5.2062e-14
4582.15 5.0987e-14
4584.87 5.1846e-14
4587.6 4.9506e-14
4590.32 4.9773e-14
4593.05 5.0234e-14
4595.77 5.0037e-14
4598.5 5.0249e-14
4601.22 4.9538e-14
4603.95 5.1373e-14
4606.67 4.9993e-14
4609.39 5.0314e-14
4612.12 5.282e-14
4614.84 5.1393e-14
4617.57 5.1487e-14
4620.29 5.2516e-14
4623.02 5.0866e-14
4625.74 5.1009e-14
4628.47 5.1226e-14
4631.19 5.0119e-14
4633.92 4.9778e-14
4636.64 5.2873e-14
4639.36 4.8791e-14
4642.09 5.1396e-14
4644.81 4.7893e-14
4647.54 5.0355e-14
4650.26 4.9699e-14
4652.99 4.9517e-14
4655.71 4.9842e-14
4658.44 5.3089e-14
4661.16 5.1638e-14
4663.89 5.1374e-14
4666.61 5.0568e-14
4669.34 4.9705e-14
4672.06 4.8851e-14
4674.78 5.1464e-14
4677.51 5.1299e-14
4680.23 5.044e-14
4682.96 4.8941e-14
4685.68 5.1119e-14
4688.41 5.1774e-14
4691.13 5.2141e-14
4693.86 5.2497e-14
4696.58 5.2866e-14
4699.31 5.2461e-14
4702.03 5.1787e-14
4704.75 4.9144e-14
4707.48 5.1082e-14
4710.2 5.0978e-14
4712.93 5.0306e-14
4715.65 5.2271e-14
4718.38 4.8688e-14
4721.1 5.1517e-14
4723.83 5.0548e-14
4726.55 4.9958e-14
4729.28 4.9082e-14
4732.0 4.9019e-14
4734.72 4.8387e-14
4737.45 5.0474e-14
4740.17 5.0922e-14
4742.9 5.1992e-14
4745.62 5.0913e-14
4748.35 5.1014e-14
4751.07 5.2345e-14
4753.8 5.2335e-14
4756.52 5.0774e-14
4759.25 4.8852e-14
4761.97 5.128e-14
4764.7 5.1426e-14
4767.42 4.9124e-14
4770.14 4.7429e-14
4772.87 5.0338e-14
4775.59 4.8711e-14
4778.32 5.0415e-14
4781.04 4.9568e-14
4783.77 5.0395e-14
4786.49 4.8144e-14
4789.22 4.6449e-14
4791.94 4.7671e-14
4794.67 4.9231e-14
4797.39 4.8062e-14
4800.11 4.6759e-14
4802.84 4.882e-14
4805.56 4.904e-14
4808.29 4.8632e-14
4811.01 4.9222e-14
4813.74 4.9167e-14
4816.46 4.8251e-14
4819.19 4.9857e-14
4821.91 4.7039e-14
4824.64 4.7503e-14
4827.36 4.8131e-14
4830.09 4.7483e-14
4832.81 4.6759e-14
4835.53 4.6283e-14
4838.26 4.7021e-14
4840.98 4.6352e-14
4843.71 4.4864e-14
4846.43 4.6879e-14
4849.16 4.6501e-14
4851.88 4.6881e-14
4854.61 5.2949e-14
4857.33 7.1129e-14
4860.06 1.094e-13
4862.78 1.4403e-13
4865.5 1.4356e-13
4868.23 1.0693e-13
4870.95 6.5649e-14
4873.68 5.0071e-14
4876.4 4.528e-14
4879.13 4.393e-14
4881.85 4.5656e-14
4884.58 4.6289e-14
4887.3 4.7523e-14
4890.03 4.5825e-14
4892.75 4.5421e-14
4895.48 4.541e-14
4898.2 4.7012e-14
4900.92 4.7829e-14
4903.65 4.7892e-14
4906.37 4.8707e-14
4909.1 4.767e-14
4911.82 4.789e-14
4914.55 4.6219e-14
4917.27 4.8588e-14
4920.0 4.7609e-14
4922.72 4.5059e-14
4925.45 4.7016e-14
4928.17 4.5088e-14
4930.89 4.5672e-14
4933.62 4.6677e-14
4936.34 4.4812e-14
4939.07 4.5905e-14
4941.79 4.7524e-14
4944.52 4.7378e-14
4947.24 4.9007e-14
4949.97 5.0026e-14
4952.69 5.2271e-14
4955.42 6.5282e-14
4958.14 8.8845e-14
4960.87 1.0806e-13
4963.59 1.0362e-13
4966.31 8.2997e-14
4969.04 5.9725e-14
4971.76 5.1517e-14
4974.49 4.8783e-14
4977.21 4.7442e-14
4979.94 4.8084e-14
4982.66 4.7694e-14
4985.39 4.7084e-14
4988.11 4.6376e-14
4990.84 4.8462e-14
4993.56 4.7703e-14
4996.28 4.7561e-14
4999.01 5.8933e-14
5001.73 8.0889e-14
5004.46 1.2298e-13
5007.18 1.9886e-13
5009.91 2.352e-13
5012.63 1.9456e-13
5015.36 1.1992e-13
5018.08 7.0594e-14
5020.81 5.3125e-14
5023.53 4.7946e-14
5026.25 4.5223e-14
5028.98 4.3364e-14
5031.7 4.4169e-14
5034.43 4.5288e-14
5037.15 4.4932e-14
5039.88 4.5755e-14
5042.6 4.5363e-14
5045.33 4.5428e-14
5048.05 4.5869e-14
5050.78 4.7015e-14
5053.5 4.6311e-14
5056.23 4.6868e-14
5058.95 4.7135e-14
5061.67 4.6706e-14
5064.4 4.5433e-14
5067.12 4.5782e-14
5069.85 4.5056e-14
5072.57 4.4343e-14
5075.3 4.5525e-14
5078.02 4.3931e-14
5080.75 4.3169e-14
5083.47 4.3942e-14
5086.2 4.452e-14
5088.92 4.6738e-14
5091.64 4.6817e-14
5094.37 4.6333e-14
5097.09 4.5666e-14
5099.82 4.3849e-14
5102.54 4.382e-14
5105.27 4.422e-14
5107.99 4.2976e-14
5110.72 4.4525e-14
5113.44 4.6654e-14
5116.17 4.6117e-14
5118.89 4.3808e-14
5121.62 4.4358e-14
5124.34 4.3776e-14
5127.06 4.3755e-14
5129.79 4.4316e-14
5132.51 4.3338e-14
5135.24 4.3614e-14
5137.96 4.4275e-14
5140.69 4.4179e-14
5143.41 4.3765e-14
5146.14 4.3366e-14
5148.86 4.476e-14
5151.59 4.4244e-14
5154.31 4.3242e-14
5157.03 4.363e-14
5159.76 4.4421e-14
5162.48 4.2461e-14
5165.21 4.0824e-14
5167.93 4.0296e-14
5170.66 3.8618e-14
5173.38 4.02e-14
5176.11 4.1992e-14
5178.83 4.1912e-14
5181.56 4.2343e-14
5184.28 4.0681e-14
5187.01 4.0274e-14
5189.73 4.2037e-14
5192.45 4.2268e-14
5195.18 4.3088e-14
5197.9 4.5205e-14
5200.63 4.7728e-14
5203.35 4.7107e-14
5206.08 4.4572e-14
5208.8 4.3082e-14
5211.53 4.2069e-14
5214.25 4.251e-14
5216.98 4.4926e-14
5219.7 4.6164e-14
5222.42 4.5173e-14
5225.15 4.2539e-14
5227.87 4.1697e-14
5230.6 4.2825e-14
5233.32 4.394e-14
5236.05 4.4611e-14
5238.77 4.3614e-14
5241.5 4.3446e-14
5244.22 4.4381e-14
5246.95 4.4555e-14
5249.67 4.3502e-14
5252.4 4.3387e-14
5255.12 4.4311e-14
5257.84 4.5613e-14
5260.57 4.5233e-14
5263.29 4.3878e-14
5266.02 4.3715e-14
5268.74 4.1571e-14
5271.47 4.0902e-14
5274.19 4.3252e-14
5276.92 4.392e-14
5279.64 4.3389e-14
5282.37 4.3781e-14
5285.09 4.4605e-14
5287.81 4.5846e-14
5290.54 4.6081e-14
5293.26 4.4954e-14
5295.99 4.671e-14
5298.71 4.6755e-14
5301.44 4.524e-14
5304.16 4.4916e-14
5306.89 4.4668e-14
5309.61 4.6362e-14
5312.34 4.5762e-14
5315.06 4.4967e-14
5317.78 4.3704e-14
5320.51 4.505e-14
5323.23 4.458e-14
5325.96 4.4789e-14
5328.68 4.3273e-14
5331.41 4.328e-14
5334.13 4.2638e-14
5336.86 4.4006e-14
5339.58 4.4425e-14
5342.31 4.4882e-14
5345.03 4.3856e-14
5347.76 4.3204e-14
5350.48 4.3394e-14
5353.2 4.311e-14
5355.93 4.3601e-14
5358.65 4.6104e-14
5361.38 4.7159e-14
5364.1 4.5016e-14
5366.83 4.3378e-14
5369.55 4.3288e-14
5372.28 4.2638e-14
5375.0 4.3581e-14
5377.73 4.471e-14
5380.45 4.272e-14
5383.17 4.3354e-14
5385.9 4.4758e-14
5388.62 4.4768e-14
5391.35 4.2781e-14
5394.07 4.211e-14
5396.8 4.3114e-14
5399.52 4.3192e-14
5402.25 4.1377e-14
5404.97 4.1543e-14
5407.7 4.0955e-14
5410.42 4.1293e-14
5413.15 4.2435e-14
5415.87 4.4897e-14
5418.59 4.4421e-14
5421.32 4.4149e-14
5424.04 4.4846e-14
5426.77 4.3914e-14
5429.49 4.4782e-14
5432.22 4.3191e-14
5434.94 4.1888e-14
5437.67 4.3461e-14
5440.39 4.4377e-14
5443.12 4.4819e-14
5445.84 4.4156e-14
5448.56 4.3599e-14
5451.29 4.2583e-14
5454.01 4.2224e-14
5456.74 4.3544e-14
5459.46 4.3691e-14
5462.19 4.1022e-14
5464.91 4.2343e-14
5467.64 4.4516e-14
5470.36 4.3252e-14
5473.09 4.3948e-14
5475.81 4.2472e-14
5478.54 4.12e-14
5481.26 4.2078e-14
5483.98 4.4145e-14
5486.71 4.3544e-14
5489.43 4.3931e-14
5492.16 4.3654e-14
5494.88 4.2412e-14
5497.61 4.3873e-14
5500.33 4.2261e-14
5503.06 4.2933e-14
5505.78 4.168e-14
5508.51 4.2461e-14
5511.23 4.1591e-14
5513.95 4.3281e-14
5516.68 4.2111e-14
5519.4 4.2918e-14
5522.13 4.3926e-14
5524.85 4.3997e-14
5527.58 4.5971e-14
5530.3 4.4375e-14
5533.03 4.1941e-14
5535.75 4.2791e-14
5538.48 4.5813e-14
5541.2 4.3082e-14
5543.93 4.232e-14
5546.65 4.1557e-14
5549.37 4.3731e-14
5552.1 4.1559e-14
5554.82 4.2323e-14
5557.55 4.3139e-14
5560.27 4.3598e-14
5563.0 4.3293e-14
5565.72 4.3435e-14
5568.45 4.3972e-14
5571.17 4.1381e-14
5573.9 3.9718e-14
5576.62 4.3556e-14
5579.34 4.1496e-14
5582.07 4.2351e-14
5584.79 4.3921e-14
5587.52 4.1971e-14
5590.24 4.125e-14
5592.97 4.2981e-14
5595.69 4.0299e-14
5598.42 4.3267e-14
5601.14 4.243e-14
5603.87 4.0674e-14
5606.59 4.376e-14
5609.31 4.3116e-14
5612.04 4.2985e-14
5614.76 4.2348e-14
5617.49 4.324e-14
5620.21 4.1478e-14
5622.94 4.1974e-14
5625.66 4.0879e-14
5628.39 4.0729e-14
5631.11 4.1525e-14
5633.84 4.2152e-14
5636.56 4.1935e-14
5639.29 4.2476e-14
5642.01 4.323e-14
5644.73 4.3382e-14
5647.46 4.1913e-14
5650.18 4.305e-14
5652.91 4.2471e-14
5655.63 4.3136e-14
5658.36 4.3311e-14
5661.08 4.1711e-14
5663.81 4.018e-14
5666.53 4.0127e-14
5669.26 4.0954e-14
5671.98 4.1754e-14
5674.7 4.1838e-14
5677.43 4.1209e-14
5680.15 4.047e-14
5682.88 4.5313e-14
5685.6 4.0615e-14
5688.33 4.1971e-14
5691.05 4.0072e-14
5693.78 4.2471e-14
5696.5 4.0961e-14
5699.23 4.2142e-14
5701.95 4.1457e-14
5704.68 4.1557e-14
5707.4 3.8896e-14
5710.12 4.1747e-14
5712.85 3.8491e-14
5715.57 4.1731e-14
5718.3 4.1527e-14
5721.02 4.1972e-14
5723.75 4.3154e-14
5726.47 4.3007e-14
5729.2 4.3269e-14
5731.92 3.9755e-14
5734.65 4.1433e-14
5737.37 4.162e-14
5740.09 4.1094e-14
5742.82 4.3388e-14
5745.54 4.2032e-14
5748.27 4.1558e-14
5750.99 3.973e-14
5753.72 4.4516e-14
5756.44 4.259e-14
5759.17 4.5982e-14
5761.89 4.1597e-14
5764.62 4.3621e-14
5767.34 4.3085e-14
5770.07 4.2526e-14
5772.79 4.3025e-14
5775.51 4.243e-14
5778.24 4.3304e-14
5780.96 4.2272e-14
5783.69 4.1583e-14
5786.41 4.1389e-14
5789.14 4.122e-14
5791.86 4.2738e-14
5794.59 4.4469e-14
5797.31 4.2823e-14
5800.04 4.2677e-14
5802.76 4.1038e-14
5805.48 4.0822e-14
5808.21 4.3405e-14
5810.93 4.3405e-14
5813.66 4.1053e-14
5816.38 4.2468e-14
5819.11 4.4266e-14
5821.83 4.2501e-14
5824.56 4.5317e-14
5827.28 4.2767e-14
5830.01 4.127e-14
5832.73 4.4172e-14
5835.46 4.2712e-14
5838.18 4.1919e-14
5840.9 4.2748e-14
5843.63 4.336e-14
5846.35 4.2748e-14
5849.08 4.2069e-14
5851.8 4.3349e-14
5854.53 4.2167e-14
5857.25 4.2157e-14
5859.98 4.2331e-14
5862.7 4.1631e-14
5865.43 4.0529e-14
5868.15 4.0607e-14
5870.87 4.3234e-14
5873.6 4.9094e-14
5876.32 5.6469e-14
5879.05 5.5773e-14
5881.77 4.9855e-14
5884.5 4.5605e-14
5887.22 3.9787e-14
5889.95 3.6772e-14
5892.67 3.6912e-14
5895.4 3.6065e-14
5898.12 3.7519e-14
5900.85 3.8718e-14
5903.57 4.0391e-14
5906.29 4.0896e-14
5909.02 4.0609e-14
5911.74 4.1454e-14
5914.47 4.0848e-14
5917.19 4.0572e-14
5919.92 3.8475e-14
5922.64 3.8652e-14
5925.37 4.0911e-14
5928.09 4.0327e-14
5930.82 3.9117e-14
5933.54 3.7382e-14
5936.26 3.9682e-14
5938.99 3.9684e-14
5941.71 3.955e-14
5944.44 4.0322e-14
5947.16 4.0068e-14
5949.89 4.1007e-14
5952.61 3.98e-14
5955.34 4.0356e-14
5958.06 3.9604e-14
5960.79 4.0242e-14
5963.51 4.1764e-14
5966.23 3.9573e-14
5968.96 3.951e-14
5971.68 4.0581e-14
5974.41 4.0556e-14
5977.13 4.1078e-14
5979.86 4.0268e-14
5982.58 4.1991e-14
5985.31 4.0307e-14
5988.03 3.9655e-14
5990.76 4.0463e-14
5993.48 4.1482e-14
5996.21 4.133e-14
5998.93 3.9011e-14
6001.65 3.8883e-14
6004.38 3.9419e-14
6007.1 4.0848e-14
6009.83 4.0624e-14
6012.55 3.9719e-14
6015.28 4.0584e-14
6018.0 3.9252e-14
6020.73 4.1243e-14
6023.45 4.0995e-14
6026.18 4.0761e-14
6028.9 3.8268e-14
6031.62 4.0581e-14
6034.35 3.872e-14
6037.07 4.1371e-14
6039.8 4.1605e-14
6042.52 4.0132e-14
6045.25 4.1923e-14
6047.97 4.1271e-14
6050.7 4.2307e-14
6053.42 4.2899e-14
6056.15 4.1389e-14
6058.87 3.9026e-14
6061.6 3.9042e-14
6064.32 4.0519e-14
6067.04 4.1205e-14
6069.77 3.976e-14
6072.49 3.9884e-14
6075.22 3.9917e-14
6077.94 3.9757e-14
6080.67 3.9177e-14
6083.39 4.2397e-14
6086.12 3.8425e-14
6088.84 4.1009e-14
6091.57 3.7774e-14
6094.29 3.9899e-14
6097.01 3.9502e-14
6099.74 4.2092e-14
6102.46 3.955e-14
6105.19 4.1312e-14
6107.91 4.0216e-14
6110.64 4.0255e-14
6113.36 4.0055e-14
6116.09 4.5041e-14
6118.81 5.0106e-14
6121.54 4.6803e-14
6124.26 3.9046e-14
6126.99 3.8408e-14
6129.71 3.9432e-14
6132.43 4.0382e-14
6135.16 3.8107e-14
6137.88 3.841e-14
6140.61 3.8638e-14
6143.33 3.9462e-14
6146.06 3.6992e-14
6148.78 4.1002e-14
6151.51 3.8485e-14
6154.23 4.1157e-14
6156.96 3.7491e-14
6159.68 3.8933e-14
6162.4 3.6471e-14
6165.13 3.6686e-14
6167.85 3.6345e-14
6170.58 3.7641e-14
6173.3 3.6849e-14
6176.03 3.8845e-14
6178.75 3.9757e-14
6181.48 4.2285e-14
6184.2 3.8613e-14
6186.93 3.7309e-14
6189.65 3.662e-14
6192.38 3.7724e-14
6195.1 3.7014e-14
6197.82 3.926e-14
6200.55 3.6053e-14
6203.27 3.6902e-14
6206.0 3.7009e-14
6208.72 3.7876e-14
6211.45 3.7896e-14
6214.17 3.8719e-14
6216.9 3.7084e-14
6219.62 3.6302e-14
6222.35 3.6623e-14
6225.07 3.6681e-14
6227.79 3.773e-14
6230.52 3.8233e-14
6233.24 3.5998e-14
6235.97 3.6716e-14
6238.69 3.6949e-14
6241.42 3.5682e-14
6244.14 3.8044e-14
6246.87 3.8356e-14
6249.59 3.8898e-14
6252.32 3.9002e-14
6255.04 3.8984e-14
6257.76 3.6775e-14
6260.49 3.6672e-14
6263.21 3.8694e-14
6265.94 3.6949e-14
6268.66 3.7832e-14
6271.39 3.8973e-14
6274.11 3.6795e-14
6276.84 3.592e-14
6279.56 3.8615e-14
6282.29 3.6453e-14
6285.01 3.6697e-14
6287.74 3.8404e-14
6290.46 3.8432e-14
6293.18 3.8089e-14
6295.91 3.9452e-14
6298.63 4.2154e-14
6301.36 4.6459e-14
6304.08 4.9533e-14
6306.81 4.6239e-14
6309.53 3.6825e-14
6312.26 3.8626e-14
6314.98 4.1776e-14
6317.71 3.5392e-14
6320.43 3.8323e-14
6323.15 3.5679e-14
6325.88 3.8608e-14
6328.6 3.9069e-14
6331.33 3.8555e-14
6334.05 4.0151e-14
6336.78 3.9003e-14
6339.5 3.7694e-14
6342.23 3.8626e-14
6344.95 3.969e-14
6347.68 4.0466e-14
6350.4 4.2729e-14
6353.13 3.9767e-14
6355.85 4.2101e-14
6358.57 4.1108e-14
6361.3 4.0044e-14
6364.02 3.9496e-14
6366.75 4.0637e-14
6369.47 4.1695e-14
6372.2 4.0925e-14
6374.92 3.7695e-14
6377.65 3.8818e-14
6380.37 3.8851e-14
6383.1 3.9685e-14
6385.82 3.8475e-14
6388.54 3.8417e-14
6391.27 3.8701e-14
6393.99 3.9035e-14
6396.72 3.9732e-14
6399.44 3.842e-14
6402.17 3.9035e-14
6404.89 3.915e-14
6407.62 3.8699e-14
6410.34 3.7239e-14
6413.07 3.9241e-14
6415.79 3.8667e-14
6418.52 3.893e-14
6421.24 3.8534e-14
6423.96 3.7127e-14
6426.69 3.85e-14
6429.41 3.7548e-14
6432.14 3.6322e-14
6434.86 3.7362e-14
6437.59 3.9456e-14
6440.31 3.7664e-14
6443.04 3.7246e-14
6445.76 3.8539e-14
6448.49 3.9361e-14
6451.21 3.8556e-14
6453.93 3.821e-14
6456.66 3.8442e-14
6459.38 3.7649e-14
6462.11 3.7518e-14
6464.83 3.7392e-14
6467.56 3.7701e-14
6470.28 3.7409e-14
6473.01 3.7934e-14
6475.73 3.7528e-14
6478.46 3.6092e-14
6481.18 3.6043e-14
6483.91 3.7202e-14
6486.63 3.7378e-14
6489.35 3.9119e-14
6492.08 3.7927e-14
6494.8 3.6262e-14
6497.53 3.4903e-14
6500.25 3.5247e-14
6502.98 3.5918e-14
6505.7 3.7235e-14
6508.43 3.6348e-14
6511.15 3.6266e-14
6513.88 3.7181e-14
6516.6 3.639e-14
6519.32 3.5991e-14
6522.05 3.6876e-14
6524.77 3.6928e-14
6527.5 3.8534e-14
6530.22 3.8681e-14
6532.95 3.6649e-14
6535.67 3.7621e-14
6538.4 3.7696e-14
6541.12 4.0102e-14
6543.85 4.5771e-14
6546.57 6.281e-14
6549.29 7.9425e-14
6552.02 8.0518e-14
6554.74 7.9454e-14
6557.47 1.0652e-13
6560.19 2.1395e-13
6562.92 3.8855e-13
6565.64 4.6001e-13
6568.37 3.6068e-13
6571.09 1.8192e-13
6573.82 8.4352e-14
6576.54 5.9601e-14
6579.27 7.5564e-14
6581.99 1.225e-13
6584.71 1.6599e-13
6587.44 1.6321e-13
6590.16 1.1412e-13
6592.89 6.69e-14
6595.61 4.7348e-14
6598.34 4.0128e-14
6601.06 4.0239e-14
6603.79 3.9541e-14
6606.51 3.8544e-14
6609.24 3.7318e-14
6611.96 3.7142e-14
6614.68 3.7237e-14
6617.41 3.753e-14
6620.13 3.8173e-14
6622.86 3.6166e-14
6625.58 3.6839e-14
6628.31 3.6068e-14
6631.03 3.7072e-14
6633.76 3.5694e-14
6636.48 3.5848e-14
6639.21 3.6652e-14
6641.93 3.699e-14
6644.66 3.6769e-14
6647.38 3.6275e-14
6650.1 3.5709e-14
6652.83 3.8159e-14
6655.55 3.8103e-14
6658.28 3.6474e-14
6661.0 3.526e-14
6663.73 3.6503e-14
6666.45 3.8546e-14
6669.18 3.643e-14
6671.9 3.5841e-14
6674.63 3.9527e-14
6677.35 4.1846e-14
6680.07 4.2121e-14
6682.8 4.0986e-14
6685.52 3.7613e-14
6688.25 3.6239e-14
6690.97 3.7748e-14
6693.7 3.7009e-14
6696.42 3.6707e-14
6699.15 3.6953e-14
6701.87 3.7323e-14
6704.6 3.8038e-14
6707.32 3.9899e-14
6710.05 4.4176e-14
6712.77 5.4859e-14
6715.49 7.4549e-14
6718.22 9.5345e-14
6720.94 9.0397e-14
6723.67 6.8077e-14
6726.39 5.5613e-14
6729.12 7.0041e-14
6731.84 8.2339e-14
6734.57 8.4311e-14
6737.29 6.4574e-14
6740.02 4.87e-14
6742.74 3.8293e-14
6745.46 3.9894e-14
6748.19 3.6892e-14
6750.91 3.6266e-14
6753.64 3.6526e-14
6756.36 3.7801e-14
6759.09 3.7794e-14
6761.81 3.7465e-14
6764.54 3.8259e-14
6775.9 3.6231e-14
6791.52 3.581e-14
6807.17 3.6637e-14
6822.87 3.6715e-14
6838.59 3.6709e-14
6854.36 3.6618e-14
6870.16 3.5124e-14
6886.0 3.5936e-14
6901.87 3.5764e-14
6917.78 3.6006e-14
6933.73 3.5505e-14
6949.71 3.6409e-14
6965.73 3.6152e-14
6981.79 3.6145e-14
6997.89 3.5972e-14
7014.02 3.5472e-14
7030.19 3.506e-14
7046.39 3.6035e-14
7062.63 3.5534e-14
7078.92 3.5609e-14
7095.24 3.4394e-14
7111.59 3.4546e-14
7127.99 3.4302e-14
7144.42 3.4059e-14
7160.89 3.4289e-14
7177.39 3.3579e-14
7193.94 3.1188e-14
7210.52 3.303e-14
7227.14 3.4421e-14
7243.81 3.3786e-14
7260.51 3.3393e-14
7277.24 3.4879e-14
7294.02 3.4236e-14
7310.83 3.4229e-14
7327.68 3.502e-14
7344.58 3.5746e-14
7361.51 3.4209e-14
7378.48 3.5568e-14
7395.49 3.4196e-14
7412.54 3.5472e-14
7429.62 3.3947e-14
7446.75 3.4731e-14
7463.92 3.5451e-14
7481.12 3.5038e-14
7498.37 3.479e-14
7515.66 3.5024e-14
7532.98 3.5179e-14
7550.34 3.5661e-14
7567.75 3.5165e-14
7585.2 3.5077e-14
7602.68 3.443e-14
7620.21 3.3872e-14
7637.78 3.41e-14
7655.38 3.3625e-14
7673.03 3.123e-14
7690.72 3.2998e-14
7708.45 3.086e-14
7726.21 3.2532e-14
7744.02 3.313e-14
7761.88 3.2518e-14
7779.77 3.1771e-14
7797.7 3.1838e-14
7815.68 3.2423e-14
7833.7 3.2943e-14
7851.76 3.2936e-14
7869.86 3.3158e-14
7888.0 3.2545e-14
7906.18 3.224e-14
7924.41 3.1427e-14
7942.68 3.1638e-14
7960.98 3.1924e-14
7979.34 3.2065e-14
7997.73 3.2132e-14
8016.17 3.2125e-14
8034.65 3.0743e-14
8053.17 3.189e-14
8071.73 3.2476e-14
8090.34 3.1511e-14
8108.99 3.1723e-14
8127.68 3.2009e-14
8146.42 3.2224e-14
8165.2 3.1629e-14
8184.02 3.1695e-14
8202.89 2.9505e-14
8221.8 3.1246e-14
8240.75 2.9492e-14
8259.75 3.2404e-14
8278.79 3.2323e-14
8297.88 3.0228e-14
8317.0 3.0431e-14
8336.17 3.0076e-14
8355.39 3.0558e-14
8374.65 3.0833e-14
8393.96 2.9986e-14
8413.31 3.1105e-14
8432.7 3.053e-14
8452.14 3.0174e-14
8471.63 3.0516e-14
8491.16 3.016e-14
8510.73 2.7754e-14
8530.35 3.0146e-14
8550.02 1.9415e-14
8569.72 3.0063e-14
8589.48 3.0125e-14
8609.28 2.8962e-14
8629.13 2.9629e-14
8649.02 3.0035e-14
8668.95 2.4747e-14
8688.94 2.8407e-14
8708.97 2.8597e-14
8729.05 2.98e-14
8749.17 2.8914e-14
8769.34 2.9513e-14
8789.55 2.9506e-14
8809.81 2.9703e-14
8830.13 2.9288e-14
8850.48 2.908e-14
8870.88 2.6393e-14
8891.33 2.8144e-14
8911.83 2.8528e-14
8932.37 2.8522e-14
8952.97 2.7738e-14
8973.6 2.6544e-14
8994.29 2.7788e-14
9015.02 2.69e-14
9035.81 2.6524e-14
9056.63 2.9753e-14
9077.51 2.7697e-14
9098.44 2.5605e-14
9119.41 2.8068e-14
9140.43 2.637e-14
9161.51 2.6242e-14
9182.62 2.4428e-14
9203.79 2.6717e-14
9225.01 2.6222e-14
9246.28 2.6337e-14
9267.59 2.6696e-14
9288.95 2.5547e-14
9310.37 2.4617e-14
9331.83 2.7805e-14
9353.34 2.767e-14
9374.91 2.7346e-14
9396.52 2.7592e-14
9418.17 2.7144e-14
9439.89 2.7515e-14
9461.65 2.7508e-14
9483.46 2.7437e-14
9505.32 2.7054e-14
9527.23 2.6985e-14
9549.2 2.6002e-14
9571.21 2.6723e-14
9593.28 2.7088e-14
9615.39 2.6832e-14
9637.55 2.6825e-14
9659.77 2.6511e-14
9682.04 2.6627e-14
9704.36 2.6376e-14
9726.73 2.6187e-14
9749.15 2.606e-14
9771.62 2.6113e-14
9794.15 2.5748e-14
9816.73 2.6159e-14
9839.36 2.6032e-14
9862.04 2.5846e-14
9884.78 2.5779e-14
9907.56 2.5536e-14
9930.4 2.5647e-14
9953.29 2.564e-14
9976.23 2.5574e-14
9999.24 2.5449e-14
10022.29 2.5151e-14
10068.55 2.4735e-14
10115.02 2.495e-14
10185.14 2.4701e-14
10232.15 2.463e-14
10279.37 2.4559e-14
10303.08 2.4383e-14
10494.63 2.3502e-14
10689.73 2.2519e-14
10888.47 2.1604e-14
11090.89 2.0871e-14
11297.1 2.0255e-14
11507.13 1.9932e-14
11694.1 1.9344e-14
11911.51 1.8687e-14
12105.05 1.822e-14
12301.74 1.7805e-14
12501.63 1.732e-14
12704.76 1.6887e-14
12911.2 1.6426e-14
13090.81 1.6089e-14
13303.52 1.5651e-14
13488.59 1.5365e-14
13707.76 1.505e-14
13898.46 1.4606e-14
14091.81 1.4143e-14
14287.84 1.3853e-14
14486.61 1.3789e-14
14688.14 1.3413e-14
14892.47 1.3413e-14
15099.65 1.3321e-14
15309.71 1.3413e-14
15486.97 1.3321e-14
15702.42 1.3048e-14
15884.25 1.2634e-14
16105.22 1.2663e-14
16291.72 1.2547e-14
16518.36 1.2261e-14
16709.64 1.2038e-14
16903.11 1.1737e-14
17098.85 1.1443e-14
17296.85 1.0978e-14
17497.14 1.0679e-14
17699.73 1.0293e-14
17904.69 9.9665e-15
18112.02 9.5618e-15
18279.6 9.3012e-15
18491.27 9.0269e-15
18705.39 8.6605e-15
18878.48 8.4051e-15
19097.07 8.2516e-15
19318.2 7.9532e-15
19496.96 7.6479e-15
19677.35 7.4223e-15
19905.21 7.2035e-15
20089.4 7.072e-15
20322.01 6.8319e-15
20510.05 6.7072e-15
20699.84 6.5094e-15
20891.36 6.3466e-15
21084.67 6.2164e-15
21279.75 6.061e-15
21476.66 5.9094e-15
21675.39 5.7219e-15
21875.94 5.6046e-15
22078.36 5.4518e-15
22282.66 5.291e-15
22488.83 5.1706e-15
22696.92 5.0297e-15
22906.92 4.495e-15
23118.88 4.3473e-15
23279.12 3.7679e-15
23494.53 3.483e-15
23711.94 3.4387e-15
23876.29 3.1006e-15
24097.22 2.9317e-15
24320.17 2.8335e-15
24488.77 2.6025e-15
24715.34 2.51e-15
24886.68 2.1478e-15
25116.93 2.057e-15
25219.4 1.7949e-15
25315.31 1.9268e-15
25411.21 1.9771e-15
25507.02 2.0282e-15
25602.93 1.9696e-15
25698.73 1.9577e-15
25794.63 2.0195e-15
25890.54 1.9612e-15
25986.35 2.121e-15
26082.25 2.1183e-15
26178.16 2.2494e-15
26273.97 2.2396e-15
26369.87 2.0885e-15
26465.68 1.9076e-15
26561.58 1.6667e-15
26657.48 1.7418e-15
26753.29 1.8772e-15
26849.2 1.8114e-15
26945.1 1.8194e-15
27040.91 1.743e-15
27136.81 1.7691e-15
27232.62 1.741e-15
27328.52 1.8109e-15
27424.43 1.7989e-15
27520.24 1.7428e-15
27616.14 1.6385e-15
27712.05 1.6558e-15
27807.85 1.6631e-15
27903.76 1.7304e-15
27999.56 1.7468e-15
28095.47 1.7334e-15
28191.37 1.6692e-15
28287.18 1.586e-15
28383.09 1.5731e-15
28478.99 1.5779e-15
28574.8 1.6395e-15
28670.7 1.6545e-15
28766.51 1.6794e-15
28862.41 1.6433e-15
28958.32 1.6279e-15
29054.12 1.5964e-15
29150.03 1.5254e-15
29245.93 1.6476e-15
29341.74 1.6559e-15
29437.65 1.6521e-15
29533.45 1.5458e-15
29629.36 1.574e-15
29725.26 1.5669e-15
29821.07 1.6283e-15
29916.97 1.5404e-15
30012.88 1.5166e-15
30108.69 1.3876e-15
30204.59 1.4216e-15
30300.4 1.4992e-15
30396.3 1.5119e-15
30492.21 1.462e-15
30588.01 1.4942e-15
30683.92 1.356e-15
30779.82 1.3693e-15
30875.63 1.3423e-15
30971.54 1.4246e-15
31067.34 1.4393e-15
31163.25 1.4158e-15
31259.15 1.3551e-15
31354.96 1.3833e-15
31450.86 1.5046e-15
31546.77 1.5294e-15
31642.57 1.4401e-15
31738.48 1.4733e-15
31834.29 1.3058e-15
31930.19 1.322e-15
32026.1 1.3125e-15
32121.9 1.4277e-15
32217.81 1.4113e-15
32313.71 1.5103e-15
32409.52 1.5895e-15
32505.42 1.7723e-15
32601.23 1.9501e-15
32697.13 2.2693e-15
32793.04 2.8489e-15
32888.85 3.4852e-15
32984.75 3.6298e-15
33080.66 3.4418e-15
33176.46 2.5397e-15
33272.37 2.0838e-15
33368.17 1.7931e-15
33464.08 1.6435e-15
33559.99 1.5625e-15
33655.79 1.6544e-15
33751.7 1.6166e-15
33847.6 1.6318e-15
33943.41 1.5151e-15
34039.31 1.5704e-15
34135.12 1.4704e-15
34231.02 1.5553e-15
34326.93 1.4686e-15
34422.73 1.4911e-15
34518.64 1.5167e-15
34614.55 1.4935e-15
34710.35 1.4249e-15
34806.26 1.3624e-15
34902.06 1.3159e-15
34997.97 1.3328e-15
35093.87 1.2732e-15
35189.68 1.2865e-15
35285.59 1.1468e-15
35381.49 1.1509e-15
35477.3 1.1451e-15
35573.2 1.1849e-15
35669.01 1.0789e-15
35764.91 1.1097e-15
35860.82 1.0884e-15
35956.63 1.1036e-15
36052.53 1.1098e-15
36148.43 1.0806e-15
36244.24 9.7986e-16
36340.15 1.049e-15
36435.95 1.0675e-15
36531.86 1.119e-15
36627.76 1.0484e-15
36723.57 9.8243e-16
36819.47 9.4983e-16
36915.38 1.0207e-15
37011.19 1.022e-15
37107.09 1.0372e-15
37202.9 1.0198e-15
37298.8 1.0037e-15
37394.71 1.0066e-15
37490.51 9.8292e-16
37586.42 9.0189e-16
37682.32 8.9136e-16
37778.13 8.9121e-16
37874.04 1.0221e-15
37969.84 1.0434e-15
38065.75 1.0661e-15
38161.65 1.012e-15
38257.46 9.3995e-16
38353.36 9.4885e-16
38449.27 9.5915e-16
38545.07 9.1867e-16
38640.98 9.1853e-16
38736.79 8.103e-16
38832.69 7.7593e-16
38928.6 8.2058e-16
39024.4 7.8712e-16
39120.31 8.3902e-16
39216.21 8.728e-16
39312.02 9.2609e-16
39407.93 9.2082e-16
39503.73 8.2565e-16
39599.64 8.5039e-16
39695.54 8.1679e-16
39791.35 8.9323e-16
39887.25 8.827e-16
39983.16 9.0421e-16
40078.96 8.3609e-16
40174.87 8.1834e-16
40270.68 8.5343e-16
40366.58 1.038e-15
40462.49 1.3187e-15
40558.29 1.6347e-15
40654.2 1.4848e-15
40750.1 1.1197e-15
40845.91 8.7811e-16
40941.81 8.0184e-16
41037.62 7.4911e-16
41133.52 7.4602e-16
41229.43 7.1972e-16
41325.24 7.6221e-16
41421.14 7.9711e-16
41517.05 8.0097e-16
41612.85 7.1564e-16
41708.76 7.0934e-16
41804.56 6.5177e-16
41900.47 6.9137e-16
41996.37 6.5246e-16
42092.18 6.802e-16
42188.09 6.6395e-16
42283.99 6.988e-16
42379.8 7.0735e-16
42475.7 6.9916e-16
42571.51 6.5532e-16
42667.41 6.3669e-16
42763.32 6.1761e-16
42859.12 6.1647e-16
42955.03 5.9614e-16
43050.94 5.8295e-16
43146.74 6.3029e-16
43242.65 6.48e-16
43338.45 6.4112e-16
43434.36 5.7378e-16
43530.26 5.5946e-16
43626.07 5.7917e-16
43721.98 6.0045e-16
43817.88 6.0419e-16
43913.69 6.0814e-16
44009.59 5.9706e-16
44105.4 5.4115e-16
44201.3 5.2345e-16
44297.2 5.4514e-16
44393.01 6.0185e-16
44488.92 5.7808e-16
44584.82 5.8064e-16
44680.63 5.3966e-16
44776.54 5.2671e-16
44872.34 4.9055e-16
44968.25 4.672e-16
45064.15 4.6798e-16
45159.95 4.7123e-16
45255.86 4.9506e-16
45351.77 5.1531e-16
45447.58 5.6185e-16
45543.48 5.626e-16
45639.29 5.8252e-16
45735.19 5.2368e-16
45831.1 4.6167e-16
45926.9 4.6051e-16
46022.81 4.5761e-16
46118.71 5.9946e-16
46214.52 6.3221e-16
46310.42 6.73e-16
46406.23 7.1457e-16
46502.14 7.9372e-16
46598.04 7.5732e-16
46693.85 6.7679e-16
46789.75 5.4077e-16
46885.65 5.2291e-16
46981.46 4.887e-16
47077.37 5.1164e-16
47173.18 4.5979e-16
47269.08 4.8909e-16
47364.99 4.8746e-16
47460.79 5.5825e-16
47556.69 4.6722e-16
47652.6 5.018e-16
47748.41 4.8578e-16
47844.31 5.4562e-16
47940.12 5.6632e-16
48036.03 5.8741e-16
48131.93 5.421e-16
48227.74 5.1525e-16
48323.64 5.2418e-16
48419.54 5.2931e-16
48515.35 4.6514e-16
48611.25 4.4503e-16
48707.06 4.4255e-16
48802.97 4.8631e-16
48898.88 4.4626e-16
48994.68 4.8558e-16
49091.58 4.5576e-16
49582.49 4.5508e-16
50078.32 4.544e-16
50579.1 4.537e-16
51084.89 4.53e-16
51595.74 4.5229e-16
51690.23 4.5216e-16
51989.83 5.2671e-16
52289.44 5.5415e-16
52589.04 5.0474e-16
52888.65 5.1966e-16
53188.35 5.8182e-16
53487.96 6.2081e-16
53787.56 4.5712e-16
54087.16 4.3691e-16
54386.77 4.1252e-16
54686.47 4.2556e-16
54986.08 4.6821e-16
55285.68 4.9228e-16
55585.29 5.2111e-16
55884.89 5.4592e-16
56184.59 6.2237e-16
56484.2 6.5828e-16
56783.8 6.7242e-16
57083.41 6.989e-16
57383.02 6.8701e-16
57682.72 6.6506e-16
57982.33 6.3678e-16
58281.93 6.3336e-16
58581.53 6.7218e-16
58881.14 7.094e-16
59180.84 7.0047e-16
59480.45 7.1492e-16
59780.05 8.2627e-16
60079.66 9.8046e-16
60379.26 1.0231e-15
60678.96 1.074e-15
60978.57 1.1863e-15
61278.17 1.5206e-15
61577.78 2.201e-15
61877.38 3.0552e-15
62177.09 3.3622e-15
62476.69 3.0823e-15
62776.3 2.574e-15
63075.9 2.1041e-15
63375.5 1.7293e-15
63675.21 1.4703e-15
63974.81 1.3068e-15
64274.42 1.1746e-15
64574.02 1.0587e-15
64873.63 9.9144e-16
65173.33 9.8377e-16
65472.93 9.1416e-16
65772.54 9.4632e-16
66072.15 9.6431e-16
66371.75 9.7807e-16
66671.46 9.6397e-16
66971.06 9.6436e-16
67270.67 9.7875e-16
67570.26 9.686e-16
67869.88 9.4689e-16
68169.58 9.2589e-16
68469.18 9.3888e-16
68768.79 9.6657e-16
69068.4 9.8299e-16
69368.0 1.0362e-15
69667.7 1.3042e-15
69967.31 1.3343e-15
70266.91 1.1358e-15
70566.51 1.1194e-15
70866.12 1.2429e-15
71165.82 1.2187e-15
71465.43 1.2223e-15
71765.03 1.2517e-15
72064.64 1.2903e-15
72364.24 1.3344e-15
72663.94 1.4073e-15
72963.55 1.46e-15
73263.16 1.5712e-15
73562.76 1.676e-15
73862.36 1.8504e-15
74162.07 2.0474e-15
74461.67 2.2591e-15
74761.27 2.4301e-15
75060.88 2.4911e-15
75660.09 2.9215e-15
76259.4 3.0204e-15
76858.6 2.9236e-15
77457.82 2.7999e-15
78057.13 2.6805e-15
78656.34 2.4935e-15
79255.65 2.1665e-15
79854.85 1.8724e-15
80454.07 1.6139e-15
81053.37 1.4136e-15
81652.58 1.2987e-15
82251.79 1.252e-15
82851.09 1.2732e-15
83450.31 1.292e-15
84049.51 1.2982e-15
84648.83 1.3758e-15
85248.03 1.5156e-15
85847.35 1.5779e-15
86446.56 1.5034e-15
87045.77 1.3353e-15
87645.08 1.1331e-15
88244.28 9.5375e-16
88843.5 8.4729e-16
89442.8 8.7615e-16
90042.01 9.0805e-16
90641.22 7.3559e-16
91240.52 6.7534e-16
91839.74 6.8302e-16
92439.04 6.64e-16
93038.25 6.543e-16
93637.46 6.6023e-16
94236.76 6.4918e-16
94835.98 6.4931e-16
95435.19 6.4766e-16
96034.5 6.5697e-16
96633.7 6.7806e-16
97232.91 6.6353e-16
97832.23 6.4842e-16
98431.44 6.314e-16
99030.75 6.276e-16
99629.95 6.255e-16
100229.17 6.2232e-16
100828.47 6.2641e-16
101427.68 6.2379e-16
102026.89 6.1544e-16
102626.19 6.1741e-16
103225.41 6.2597e-16
103824.61 6.4657e-16
104423.92 7.1518e-16
105023.13 8.3599e-16
105622.45 8.1591e-16
106221.65 7.406e-16
106820.86 7.3536e-16
107420.18 7.2805e-16
108019.38 7.2932e-16
108618.59 7.4204e-16
109217.9 7.8786e-16
109817.11 8.796e-16
110416.32 9.4896e-16
111015.62 1.0425e-15
111614.84 1.4431e-15
112214.14 1.883e-15
112813.35 1.8563e-15
113412.56 1.5665e-15
114011.87 1.3069e-15
114611.08 1.1429e-15
115210.29 1.0227e-15
115809.59 9.7837e-16
116408.8 9.2851e-16
117008.01 8.9354e-16
117607.32 8.8248e-16
118206.53 8.9027e-16
118805.85 9.131e-16
119405.05 9.3558e-16
120004.26 9.3722e-16
120603.57 9.2572e-16
121202.78 9.1651e-16
121801.99 9.0252e-16
122401.29 9.1843e-16
123000.51 9.5367e-16
123599.72 9.7723e-16
124199.02 9.8936e-16
124798.23 1.0133e-15
125397.54 1.0628e-15
125996.75 1.0981e-15
126595.96 1.1379e-15
127195.27 1.2517e-15
127794.47 1.6563e-15
128393.69 1.823e-15
128993.0 1.1428e-15
129592.2 8.8062e-16
130191.41 8.3288e-16
130790.72 8.1947e-16
131389.93 8.1333e-16
131989.14 8.1166e-16
132588.45 8.1687e-16
133187.66 8.1527e-16
133786.97 8.0418e-16
134386.18 8.1698e-16
134985.38 8.1348e-16
135584.7 8.1898e-16
136183.9 8.2281e-16
136783.11 8.0335e-16
137382.43 7.914e-16
137981.63 7.8874e-16
138580.84 7.8159e-16
139180.15 7.7452e-16
139779.36 7.7638e-16
140378.67 7.8766e-16
140977.88 7.7347e-16
141577.09 7.747e-16
142176.4 7.4801e-16
142775.61 7.2203e-16
143374.81 6.985e-16
144426.59 7.6515e-16
145265.58 7.5976e-16
146104.55 7.6263e-16
146943.52 7.6216e-16
147782.39 7.5477e-16
148621.36 7.5851e-16
149460.33 7.5995e-16
150299.21 7.6903e-16
151138.18 7.7769e-16
151977.15 7.785e-16
152816.02 7.9017e-16
153654.99 8.0053e-16
154493.98 9.2506e-16
155332.85 1.19e-15
156171.82 1.1477e-15
157010.79 8.8661e-16
157849.65 8.4848e-16
158688.64 8.6579e-16
159527.61 8.7965e-16
160366.58 8.8751e-16
161205.45 9.1122e-16
162044.44 9.2348e-16
162883.39 9.711e-16
163722.28 1.0384e-15
164561.24 1.0658e-15
165400.21 1.0477e-15
166239.1 1.029e-15
167078.05 1.0333e-15
167917.04 1.0341e-15
168755.9 1.0424e-15
169594.88 1.07e-15
170433.85 1.1021e-15
171272.71 1.0951e-15
172111.7 1.0895e-15
172950.67 1.0989e-15
173789.64 1.1132e-15
174628.51 1.0936e-15
175467.5 1.0641e-15
176306.45 1.0593e-15
177145.34 1.0671e-15
177984.31 1.0692e-15
178823.28 1.0815e-15
179662.16 1.0781e-15
180501.11 1.0713e-15
181340.1 1.0737e-15
182178.97 1.09e-15
183017.94 1.0928e-15
183856.91 1.0999e-15
184695.77 1.1002e-15
185534.76 1.1253e-15
186373.74 1.4433e-15
187212.71 1.6301e-15
188051.57 1.3325e-15
188890.56 1.1271e-15
189729.51 1.1309e-15
190568.4 1.139e-15
191407.37 1.1374e-15
192246.34 1.118e-15
193085.22 1.1203e-15
193924.2 1.1474e-15
194763.16 1.148e-15
195602.03 1.1358e-15
196441.0 1.1319e-15
197279.97 1.1352e-15
198118.86 1.1317e-15
198957.82 1.1286e-15
199796.8 1.1294e-15
200635.77 1.1264e-15
201474.63 1.1278e-15
202313.62 1.1205e-15
203991.46 1.1055e-15
205669.4 1.1491e-15
207347.26 1.1471e-15
209025.09 1.1307e-15
210703.03 1.1522e-15
212380.88 1.1603e-15
214058.83 1.1509e-15
215736.68 1.1814e-15
217414.52 1.1855e-15
219092.48 1.1835e-15
220770.32 1.204e-15
222448.15 1.1987e-15
224126.09 1.1962e-15
225803.95 1.2241e-15
227481.89 1.2164e-15
229159.74 1.2135e-15
230837.58 1.2281e-15
232515.54 1.25e-15
234193.38 1.2398e-15
235871.23 1.2292e-15
237549.15 1.2286e-15
239227.01 1.2199e-15
240904.95 1.2103e-15
242582.8 1.2035e-15
244260.64 1.205e-15
245938.6 1.1924e-15
247616.44 1.1802e-15
249294.29 1.1774e-15
250972.24 1.1785e-15
252650.09 1.1818e-15
254328.01 1.1779e-15
256005.86 1.1708e-15
257683.7 1.1836e-15
259361.66 1.2005e-15
261039.5 1.1918e-15
262717.35 1.1863e-15
264395.29 1.1799e-15
266073.13 1.1782e-15
267751.07 1.1742e-15
269428.92 1.1918e-15
271106.79 1.2028e-15
272784.73 1.2084e-15
274462.55 1.1958e-15
276140.39 1.1992e-15
277818.36 1.201e-15
279496.21 1.208e-15
281174.15 1.1951e-15
282851.99 1.1958e-15
284529.84 1.1951e-15
286207.78 1.1923e-15
287885.62 1.1849e-15
289563.47 1.1751e-15
291241.41 1.1831e-15
292919.25 1.175e-15
294597.19 1.1856e-15
296275.07 1.2e-15
297952.91 1.1941e-15
299630.85 1.1995e-15
301308.7 1.1948e-15
302986.54 1.1851e-15
304664.48 1.1952e-15
306342.33 1.1918e-15
308020.26 1.1899e-15
309698.11 1.1923e-15
311375.96 1.1997e-15
313053.89 1.2198e-15
314731.77 1.2185e-15
316409.62 1.2103e-15
318087.56 1.2058e-15
319765.37 1.218e-15
321443.34 1.2403e-15
323121.19 1.2637e-15
324799.03 1.2671e-15
326476.97 1.2841e-15
328154.82 1.3067e-15
329832.66 1.3183e-15
331510.63 1.3301e-15
333188.48 1.4866e-15
334866.38 1.5223e-15
336544.23 1.4463e-15
338222.11 1.3267e-15
339900.01 1.316e-15
341577.86 1.3429e-15
343255.71 1.2948e-15
344933.68 1.3317e-15
346611.49 1.4525e-15
