# col1 col2
# An Atlas of Galaxy Spectral Energy Distributions from the Ultraviolet to the Mid-Infrared
# Brown et al. (2014)
# http://dx.doi.org/10.5072/03/529D3551F0117
# 
# Column 1 : Restframe Wavelength (Angstrom)
# Column 2 : Flux per unit wavelength (ergs/s/cm^2/Angstrom)
# Column 3 : Observed wavelength (Angstrom)
# Column 4 : Source (0 = model, 1 = Optical Spectrum, 2 = Akari, 3 = Spitzer IRS)
# 
101.99 2.0916e-18
103.89 2.4405e-18
106.07 2.9207e-18
108.04 3.5685e-18
110.05 4.96e-18
113.91 6.6449e-18
117.92 8.404e-18
120.94 2.874e-17
124.9 3.4394e-17
126.93 3.66e-17
128.11 3.8325e-17
131.09 4.1446e-17
132.0 4.8249e-17
134.14 5.029e-17
136.95 6.1871e-17
140.14 6.6143e-17
143.08 1.6923e-16
147.09 3.868e-16
150.86 4.0596e-16
155.09 4.32e-16
159.06 4.6077e-16
162.02 4.8027e-16
166.18 5.1462e-16
170.05 5.3887e-16
172.81 5.6168e-16
176.84 5.8815e-16
180.12 6.0741e-16
181.79 6.2156e-16
186.03 6.4787e-16
190.8 6.7996e-16
193.9 7.0548e-16
197.96 7.3027e-16
202.1 7.5943e-16
204.91 7.7891e-16
210.17 7.7712e-16
216.06 8.5013e-16
220.08 8.8001e-16
223.14 8.8815e-16
226.76 9.2148e-16
229.92 1.3947e-15
234.19 2.32e-15
240.2 2.9274e-15
245.79 2.7132e-15
252.1 2.8674e-15
256.79 2.3361e-15
259.76 2.751e-15
263.98 2.8939e-15
268.89 2.8674e-15
273.89 2.828e-15
278.98 2.77e-15
284.17 2.7637e-15
290.12 2.6091e-15
296.19 2.5971e-15
301.0 2.4974e-15
308.02 2.5089e-15
318.11 2.5089e-15
327.77 2.4518e-15
337.73 2.3631e-15
347.99 2.2776e-15
356.92 2.2516e-15
366.08 2.2829e-15
374.6 2.2156e-15
385.1 2.044e-15
394.98 2.1207e-15
405.11 2.1354e-15
413.59 2.0772e-15
422.25 1.9837e-15
430.1 1.9208e-15
441.14 1.9164e-15
451.41 1.8599e-15
459.8 1.768e-15
470.51 1.7198e-15
480.37 1.7198e-15
490.43 1.605e-15
499.54 1.6424e-15
506.49 1.5577e-15
512.36 1.7397e-15
519.48 1.6846e-15
530.36 1.5977e-15
540.22 1.4537e-15
550.27 1.3979e-15
560.5 1.4876e-15
569.6 1.5222e-15
580.19 1.4638e-15
589.62 1.4437e-15
600.58 1.3167e-15
610.34 1.1574e-15
620.26 1.3598e-15
630.34 1.2897e-15
640.58 1.3197e-15
649.49 1.2662e-15
658.53 1.1953e-15
664.62 1.2459e-15
675.42 1.2459e-15
684.81 1.1285e-15
694.34 1.1871e-15
705.62 1.0507e-15
715.44 1.1547e-15
725.39 1.1389e-15
735.48 1.1207e-15
745.71 1.0777e-15
754.35 1.0507e-15
764.84 9.3215e-16
775.48 1.0104e-15
784.46 9.4077e-16
795.38 9.6269e-16
804.59 9.6047e-16
815.78 9.473e-16
825.23 9.3645e-16
834.78 8.0442e-16
844.45 8.9225e-16
854.23 8.6793e-16
864.12 8.6993e-16
874.12 8.58e-16
884.25 8.4428e-16
894.48 8.3078e-16
904.84 8.0628e-16
915.32 7.9889e-16
925.92 1.4437e-15
934.49 2.0916e-15
945.31 2.6454e-15
954.05 2.975e-15
965.1 3.1585e-15
974.03 1.5187e-15
985.31 2.5733e-15
994.43 2.4745e-15
1005.94 2.9545e-15
1015.25 2.9887e-15
1024.64 2.0582e-15
1034.12 2.6151e-15
1046.1 3.4079e-15
1055.78 3.2771e-15
1065.55 2.8021e-15
1075.41 3.0233e-15
1085.36 2.5851e-15
1095.4 3.0443e-15
1105.54 2.9006e-15
1115.77 2.815e-15
1126.09 2.5031e-15
1133.89 2.8873e-15
1144.39 2.732e-15
1154.98 2.7257e-15
1165.66 2.676e-15
1173.74 1.9208e-15
1184.6 2.5321e-15
1195.56 2.1651e-15
1203.85 1.8556e-15
1214.99 1.4604e-15
1226.23 2.0868e-15
1234.73 2.4518e-15
1246.16 2.5089e-15
1254.79 2.4293e-15
1266.41 2.3093e-15
1275.18 2.5614e-15
1284.02 2.5851e-15
1295.9 2.2258e-15
1304.89 2.2156e-15
1313.93 2.4974e-15
1326.09 2.385e-15
1335.28 2.2105e-15
1344.54 2.396e-15
1353.86 2.3253e-15
1366.38 2.1453e-15
1375.85 2.1453e-15
1385.39 2.1207e-15
1395.0 1.6884e-15
1404.66 1.65e-15
1414.4 1.9656e-15
1424.21 1.9208e-15
1434.08 1.961e-15
1440.7 1.9883e-15
1447.35 1.9883e-15
1454.03 1.9208e-15
1464.11 1.8092e-15
1474.26 1.8092e-15
1484.47 1.8175e-15
1494.76 1.8009e-15
1505.13 1.7119e-15
1512.07 1.5757e-15
1515.56 1.6274e-15
1526.06 1.6013e-15
1536.64 1.3979e-15
1543.74 1.3258e-15
1554.44 1.3016e-15
1565.21 1.4012e-15
1576.06 1.4706e-15
1583.33 1.5014e-15
1594.31 1.5048e-15
1605.36 1.4638e-15
1616.49 1.4404e-15
1623.95 1.3979e-15
1635.21 1.4537e-15
1646.54 1.4504e-15
1654.14 1.3979e-15
1665.61 1.4504e-15
1673.3 1.3289e-15
1677.15 1.4808e-15
1684.89 1.4842e-15
1696.57 1.4109e-15
1704.41 1.3661e-15
1716.22 1.2986e-15
1724.14 1.2779e-15
1736.09 1.3381e-15
1744.11 1.3076e-15
1756.2 1.3474e-15
1764.3 1.2749e-15
1776.53 1.2632e-15
1784.73 1.2808e-15
1792.97 1.3258e-15
1805.4 1.3137e-15
1813.73 1.2204e-15
1826.3 1.2373e-15
1834.73 1.2036e-15
1843.2 1.113e-15
1855.98 1.1181e-15
1864.54 1.1442e-15
1873.15 1.1926e-15
1886.13 1.1079e-15
1894.84 1.0752e-15
1903.59 1.1259e-15
1916.78 1.0826e-15
1925.63 1.0387e-15
1934.52 1.0556e-15
1943.45 1.1181e-15
1956.92 1.0435e-15
1965.95 1.1311e-15
1975.03 1.1415e-15
1984.14 1.1104e-15
1993.3 1.0876e-15
2007.12 1.1053e-15
2016.38 1.0876e-15
2025.69 1.0876e-15
2035.04 1.0703e-15
2044.43 1.1079e-15
2053.87 1.0127e-15
2063.35 1.0315e-15
2072.87 1.1285e-15
2077.65 1.3197e-15
2087.24 1.4842e-15
2096.88 1.3915e-15
2106.56 1.3756e-15
2116.28 1.4604e-15
2126.05 1.3819e-15
2135.86 1.3197e-15
2145.72 1.4774e-15
2155.62 1.491e-15
2165.57 1.3693e-15
2175.57 1.3724e-15
2185.61 1.5434e-15
2195.7 1.5399e-15
2205.83 1.5083e-15
2216.01 1.2867e-15
2226.24 1.3915e-15
2236.52 1.6691e-15
2246.84 1.6013e-15
2257.21 1.3443e-15
2262.42 1.2867e-15
2272.86 1.3661e-15
2283.35 1.6613e-15
2293.89 1.4303e-15
2304.48 1.6384e-15
2315.12 1.4434e-15
2325.8 1.1923e-15
2336.54 1.1651e-15
2347.32 9.6018e-16
2352.73 1.3594e-15
2363.59 1.0008e-15
2374.5 1.1411e-15
2385.46 8.8164e-16
2396.47 9.8918e-16
2407.54 9.8007e-16
2413.09 1.0648e-15
2424.22 1.5039e-15
2435.41 1.5108e-15
2446.65 1.7346e-15
2452.3 1.8247e-15
2463.61 1.5855e-15
2474.99 1.4426e-15
2486.41 1.0236e-15
2492.14 1.1301e-15
2503.64 1.6222e-15
2515.2 9.2489e-16
2526.81 8.6911e-16
2532.64 1.2052e-15
2544.33 1.2446e-15
2556.07 2.0942e-15
2567.87 1.5959e-15
2573.79 1.9953e-15
2585.67 1.7864e-15
2597.6 1.6254e-15
2603.59 1.442e-15
2615.61 1.3272e-15
2627.68 1.7097e-15
2633.74 2.8901e-15
2645.9 3.8097e-15
2652.0 5.406e-15
2664.24 3.3563e-15
2676.53 3.8093e-15
2682.7 4.4548e-15
2695.09 3.2049e-15
2707.53 4.0067e-15
2713.77 2.8892e-15
2726.29 2.2375e-15
2732.58 2.8625e-15
2745.19 1.7011e-15
2757.86 2.2631e-15
2764.22 2.9424e-15
2776.98 3.1166e-15
2783.38 1.9216e-15
2796.23 1.0084e-15
2802.67 1.1712e-15
2815.61 2.7455e-15
2822.1 3.9775e-15
2835.13 3.729e-15
2848.21 2.6337e-15
2854.78 1.5652e-15
2867.96 3.7029e-15
2874.57 5.2183e-15
2887.84 4.7045e-15
2894.5 5.9361e-15
2907.85 8.1561e-15
2928.01 7.038e-15
2948.31 6.433e-15
2968.74 6.7357e-15
2989.32 6.8289e-15
3010.04 6.8127e-15
3030.91 7.367e-15
3051.92 7.6781e-15
3073.07 8.5354e-15
3087.26 8.2832e-15
3108.66 9.8439e-15
3130.2 9.0185e-15
3151.9 9.0803e-15
3166.45 1.0071e-14
3188.4 8.591e-15
3210.5 9.5501e-15
3232.75 7.9611e-15
3247.68 1.1533e-14
3270.19 1.3612e-14
3292.86 1.3332e-14
3308.05 1.2355e-14
3323.32 1.169e-14
3330.99 1.2185e-14
3338.66 1.091e-14
3346.36 1.2847e-14
3354.07 1.241e-14
3361.81 1.1318e-14
3369.56 1.1555e-14
3377.32 1.1188e-14
3385.11 1.1291e-14
3392.91 1.2639e-14
3400.73 1.4084e-14
3408.57 1.2581e-14
3416.43 1.1161e-14
3424.31 1.418e-14
3432.2 1.4985e-14
3440.11 1.2813e-14
3448.04 1.0201e-14
3455.99 1.2349e-14
3463.96 1.0271e-14
3471.94 1.314e-14
3479.95 9.8082e-15
3487.97 1.1684e-14
3496.01 1.0878e-14
3504.07 1.4607e-14
3512.15 1.3229e-14
3520.24 1.4673e-14
3528.36 9.4954e-15
3536.49 1.3662e-14
3538.47 1.7397e-14
3541.17 1.5377e-14
3543.87 1.4422e-14
3546.58 1.7472e-14
3549.28 1.7615e-14
3551.98 1.4025e-14
3554.69 1.4406e-14
3557.39 1.4873e-14
3560.09 1.4099e-14
3562.8 1.1881e-14
3565.5 1.3563e-14
3568.2 1.3531e-14
3570.91 1.155e-14
3573.61 1.3061e-14
3576.31 1.4301e-14
3579.02 1.1601e-14
3581.72 1.1487e-14
3584.42 1.0233e-14
3587.13 9.7568e-15
3589.83 1.1036e-14
3592.53 1.3547e-14
3595.24 1.5693e-14
3597.94 1.4949e-14
3600.64 1.4077e-14
3603.35 1.4619e-14
3606.05 1.3038e-14
3608.75 1.3714e-14
3611.46 1.3958e-14
3614.16 1.3097e-14
3616.86 1.3037e-14
3619.57 1.4639e-14
3622.27 1.5101e-14
3624.97 1.5726e-14
3627.68 1.6805e-14
3630.38 1.5516e-14
3633.08 1.5313e-14
3635.79 1.4741e-14
3638.49 1.5835e-14
3641.19 1.5522e-14
3643.9 1.4855e-14
3646.6 1.3937e-14
3649.3 1.5238e-14
3652.01 1.5289e-14
3654.71 1.7535e-14
3657.41 1.69e-14
3660.12 1.7073e-14
3662.82 1.9716e-14
3665.52 1.7519e-14
3668.23 1.7143e-14
3670.93 1.6774e-14
3673.63 1.6252e-14
3676.34 1.5571e-14
3679.04 1.6271e-14
3681.74 1.6299e-14
3684.45 1.5546e-14
3687.15 1.5974e-14
3689.85 1.7013e-14
3692.56 1.8953e-14
3695.26 1.9126e-14
3697.96 1.9416e-14
3700.67 1.8574e-14
3703.37 1.6664e-14
3706.07 1.6576e-14
3708.78 1.5784e-14
3711.48 1.5845e-14
3714.18 1.6873e-14
3716.89 1.7319e-14
3719.59 1.5597e-14
3722.29 1.3037e-14
3725.0 1.4559e-14
3727.7 1.5269e-14
3730.4 1.3794e-14
3733.11 1.2556e-14
3735.81 1.2816e-14
3738.51 1.1794e-14
3741.22 1.3674e-14
3743.92 1.2923e-14
3746.62 1.3231e-14
3749.33 1.2925e-14
3752.03 1.4271e-14
3754.73 1.5019e-14
3757.44 1.44e-14
3760.14 1.3977e-14
3762.84 1.5259e-14
3765.55 1.5559e-14
3768.25 1.5595e-14
3770.95 1.6498e-14
3773.66 1.7536e-14
3776.36 1.8236e-14
3779.06 1.8174e-14
3781.77 1.803e-14
3784.47 1.8328e-14
3787.18 1.682e-14
3789.88 1.5551e-14
3792.58 1.5378e-14
3795.29 1.4176e-14
3797.99 1.3569e-14
3800.69 1.4752e-14
3803.4 1.5915e-14
3806.1 1.7173e-14
3808.8 1.6594e-14
3811.51 1.4571e-14
3814.21 1.4459e-14
3816.91 1.5102e-14
3819.62 1.3296e-14
3822.32 1.2086e-14
3825.02 1.2207e-14
3827.73 1.0411e-14
3830.43 9.5499e-15
3833.13 1.0498e-14
3835.84 1.0915e-14
3838.54 1.0602e-14
3841.24 1.008e-14
3843.95 1.2571e-14
3846.65 1.2207e-14
3849.35 1.2898e-14
3852.06 1.2945e-14
3854.76 1.3145e-14
3857.46 1.21e-14
3860.17 1.2865e-14
3862.87 1.321e-14
3865.57 1.264e-14
3868.28 1.4232e-14
3870.98 1.3805e-14
3873.68 1.3694e-14
3876.39 1.3673e-14
3879.09 1.325e-14
3881.79 1.2961e-14
3884.5 1.3317e-14
3887.2 1.4201e-14
3889.9 1.5945e-14
3892.61 1.6804e-14
3895.31 1.7547e-14
3898.01 1.7408e-14
3900.72 1.7495e-14
3903.42 1.7797e-14
3906.12 1.8117e-14
3908.83 1.9162e-14
3911.53 1.9532e-14
3914.23 1.9884e-14
3916.94 1.9293e-14
3919.64 1.8087e-14
3922.34 1.6411e-14
3925.05 1.3749e-14
3927.75 1.2766e-14
3930.45 1.0301e-14
3933.16 7.9183e-15
3935.86 8.7536e-15
3938.56 1.0281e-14
3941.27 1.2023e-14
3943.97 1.4956e-14
3946.67 1.6942e-14
3949.38 1.8494e-14
3952.08 1.8752e-14
3954.78 1.8645e-14
3957.49 1.7276e-14
3960.19 1.6434e-14
3962.89 1.4042e-14
3965.6 1.2008e-14
3968.3 1.0958e-14
3971.0 1.1738e-14
3973.71 1.3643e-14
3976.41 1.6474e-14
3979.11 1.996e-14
3981.82 2.1638e-14
3984.52 2.3168e-14
3987.22 2.4478e-14
3989.93 2.3807e-14
3992.63 2.4949e-14
3995.33 2.5036e-14
3998.04 2.467e-14
4000.74 2.5633e-14
4003.44 2.6843e-14
4006.15 2.6539e-14
4008.85 2.7859e-14
4011.55 2.953e-14
4014.26 2.874e-14
4016.96 2.8392e-14
4019.66 2.8374e-14
4022.37 2.8532e-14
4025.07 2.8089e-14
4027.77 2.7493e-14
4030.48 2.6514e-14
4033.18 2.6812e-14
4035.89 2.7366e-14
4038.59 2.7599e-14
4041.29 2.6625e-14
4044.0 2.5833e-14
4046.7 2.6068e-14
4049.4 2.6148e-14
4052.11 2.732e-14
4054.81 2.7104e-14
4057.51 2.6068e-14
4060.22 2.5694e-14
4062.92 2.5477e-14
4065.62 2.529e-14
4068.33 2.574e-14
4071.03 2.6049e-14
4073.73 2.5675e-14
4076.44 2.6379e-14
4079.14 2.6938e-14
4081.84 2.7787e-14
4084.55 2.8806e-14
4087.25 2.9452e-14
4089.95 2.9021e-14
4092.66 2.8815e-14
4095.36 2.8316e-14
4098.06 2.602e-14
4100.77 2.4752e-14
4103.47 2.5742e-14
4106.17 2.6957e-14
4108.88 2.6866e-14
4111.58 2.6465e-14
4114.28 2.7563e-14
4116.99 2.8072e-14
4119.69 2.8289e-14
4122.39 2.7813e-14
4125.1 2.7431e-14
4127.8 2.7604e-14
4130.5 2.74e-14
4133.21 2.6845e-14
4135.91 2.729e-14
4138.61 2.8064e-14
4141.32 2.791e-14
4144.02 2.63e-14
4146.72 2.5489e-14
4149.43 2.5392e-14
4152.13 2.6209e-14
4154.83 2.6638e-14
4157.54 2.6912e-14
4160.24 2.7464e-14
4162.94 2.7529e-14
4165.65 2.7396e-14
4168.35 2.72e-14
4171.05 2.6057e-14
4173.76 2.5764e-14
4176.46 2.5468e-14
4179.16 2.5745e-14
4181.87 2.631e-14
4184.57 2.7266e-14
4187.27 2.7059e-14
4189.98 2.7033e-14
4192.68 2.734e-14
4195.38 2.6776e-14
4198.09 2.5841e-14
4200.79 2.6416e-14
4203.49 2.6864e-14
4206.2 2.842e-14
4208.9 2.9128e-14
4211.6 2.856e-14
4214.31 2.888e-14
4217.01 2.8562e-14
4219.71 2.8193e-14
4222.42 2.7817e-14
4225.12 2.6483e-14
4227.82 2.6014e-14
4230.53 2.6208e-14
4233.23 2.7024e-14
4235.93 2.8027e-14
4238.64 2.9595e-14
4241.34 2.9944e-14
4244.04 3.0686e-14
4246.75 2.9723e-14
4249.45 2.9028e-14
4252.15 2.9069e-14
4254.86 2.8859e-14
4257.56 2.9104e-14
4260.26 2.9474e-14
4262.97 3.0634e-14
4265.67 3.0185e-14
4268.37 2.907e-14
4271.08 2.7888e-14
4273.78 2.7691e-14
4276.48 2.7791e-14
4279.19 2.8856e-14
4281.89 2.8925e-14
4284.6 2.8243e-14
4287.3 2.7233e-14
4290.0 2.6813e-14
4292.71 2.5754e-14
4295.41 2.5981e-14
4298.11 2.4028e-14
4300.82 2.2801e-14
4303.52 2.2562e-14
4306.22 2.1704e-14
4308.93 2.2203e-14
4311.63 2.4523e-14
4314.33 2.759e-14
4317.04 3.1095e-14
4319.74 3.2542e-14
4322.44 3.1357e-14
4325.15 3.0866e-14
4327.85 3.1822e-14
4330.55 3.2469e-14
4333.26 3.3633e-14
4335.96 3.2763e-14
4338.66 3.1407e-14
4341.37 3.0878e-14
4344.07 3.1345e-14
4346.77 3.1789e-14
4349.48 3.296e-14
4352.18 3.208e-14
4354.88 3.3971e-14
4357.59 3.3659e-14
4360.29 3.4403e-14
4362.99 3.5235e-14
4365.7 3.5072e-14
4368.4 3.4123e-14
4371.1 3.3546e-14
4373.81 3.3401e-14
4376.51 3.2329e-14
4379.21 3.1268e-14
4381.92 3.1096e-14
4384.62 2.9352e-14
4387.32 2.9775e-14
4390.03 3.0653e-14
4392.73 3.2479e-14
4395.43 3.2773e-14
4398.14 3.3665e-14
4400.84 3.3206e-14
4403.54 3.248e-14
4406.25 3.2894e-14
4408.95 3.3453e-14
4411.65 3.4024e-14
4414.36 3.596e-14
4417.06 3.598e-14
4419.76 3.5813e-14
4422.47 3.6567e-14
4425.17 3.6633e-14
4427.87 3.711e-14
4430.58 3.6265e-14
4433.28 3.515e-14
4435.98 3.626e-14
4438.69 3.7059e-14
4441.39 3.7995e-14
4444.09 3.7004e-14
4446.8 3.7758e-14
4449.5 3.7923e-14
4452.2 3.7525e-14
4454.91 3.6935e-14
4457.61 3.5382e-14
4460.31 3.5596e-14
4463.02 3.5122e-14
4465.72 3.6654e-14
4468.42 3.736e-14
4471.13 3.8904e-14
4473.83 3.9258e-14
4476.53 4.0431e-14
4479.24 4.0512e-14
4481.94 4.0451e-14
4484.64 3.9942e-14
4487.35 4.0107e-14
4490.05 4.0568e-14
4492.75 3.9941e-14
4495.46 3.8786e-14
4498.16 3.9881e-14
4500.86 4.1026e-14
4503.57 4.1923e-14
4506.27 4.2458e-14
4508.97 4.2144e-14
4511.68 4.1803e-14
4514.38 4.1713e-14
4517.08 4.2353e-14
4519.79 4.1338e-14
4522.49 4.0286e-14
4525.19 3.8167e-14
4527.9 3.7813e-14
4530.6 3.758e-14
4533.31 3.7177e-14
4536.01 3.7702e-14
4538.71 3.9289e-14
4541.42 4.0143e-14
4544.12 4.0144e-14
4546.82 3.9842e-14
4549.53 3.9779e-14
4552.23 3.9744e-14
4554.93 4.0519e-14
4557.64 4.2078e-14
4560.34 4.2648e-14
4563.04 4.2043e-14
4565.75 4.2692e-14
4568.45 4.2587e-14
4571.15 4.1777e-14
4573.86 4.1842e-14
4576.56 4.1302e-14
4579.26 4.1613e-14
4581.97 4.1531e-14
4584.67 4.0933e-14
4587.37 4.1257e-14
4590.08 4.1301e-14
4592.78 4.1485e-14
4595.48 4.1023e-14
4598.19 4.0647e-14
4600.89 4.1392e-14
4603.59 4.1683e-14
4606.3 4.2344e-14
4609.0 4.3294e-14
4611.7 4.3579e-14
4614.41 4.4413e-14
4617.11 4.4154e-14
4619.81 4.3841e-14
4622.52 4.4408e-14
4625.22 4.5083e-14
4627.92 4.4968e-14
4630.63 4.3979e-14
4633.33 4.2416e-14
4636.03 4.2034e-14
4638.74 4.1746e-14
4641.44 4.1499e-14
4644.14 4.0731e-14
4646.85 4.0056e-14
4649.55 4.0866e-14
4652.25 4.0818e-14
4654.96 4.1324e-14
4657.66 4.1714e-14
4660.36 4.1794e-14
4663.07 4.1773e-14
4665.77 4.0884e-14
4668.47 3.9513e-14
4671.18 3.9531e-14
4673.88 4.0533e-14
4676.58 4.0425e-14
4679.29 4.1008e-14
4681.99 4.0661e-14
4684.69 4.0242e-14
4687.4 4.1011e-14
4690.1 4.0679e-14
4692.8 4.068e-14
4695.51 4.0992e-14
4698.21 4.0367e-14
4700.91 3.9275e-14
4703.62 3.9375e-14
4706.32 3.9752e-14
4709.02 4.019e-14
4711.73 4.0039e-14
4714.43 4.1341e-14
4717.13 4.209e-14
4719.84 4.2932e-14
4722.54 4.3061e-14
4725.24 4.2925e-14
4727.95 4.2541e-14
4730.65 4.1968e-14
4733.35 4.1431e-14
4736.06 4.1353e-14
4738.76 4.2477e-14
4741.46 4.3566e-14
4744.17 4.4073e-14
4746.87 4.3633e-14
4749.57 4.3899e-14
4752.28 4.4128e-14
4754.98 4.3453e-14
4757.68 4.3215e-14
4760.39 4.2581e-14
4763.09 4.1857e-14
4765.79 4.1568e-14
4768.5 4.1677e-14
4771.2 4.2646e-14
4773.9 4.2563e-14
4776.61 4.2633e-14
4779.31 4.3334e-14
4782.02 4.2756e-14
4784.72 4.1944e-14
4787.42 4.1871e-14
4790.13 4.2642e-14
4792.83 4.3247e-14
4795.53 4.3652e-14
4798.24 4.4351e-14
4800.94 4.3871e-14
4803.64 4.4078e-14
4806.35 4.4067e-14
4809.05 4.3826e-14
4811.75 4.4465e-14
4814.46 4.4396e-14
4817.16 4.4347e-14
4819.86 4.4509e-14
4822.57 4.4209e-14
4825.27 4.3493e-14
4827.97 4.3228e-14
4830.68 4.3189e-14
4833.38 4.2594e-14
4836.08 4.3344e-14
4838.79 4.33e-14
4841.49 4.3162e-14
4844.19 4.3328e-14
4846.9 4.2686e-14
4849.6 4.2344e-14
4852.3 4.1551e-14
4855.01 4.0678e-14
4857.71 3.8905e-14
4860.41 3.8865e-14
4863.12 3.7981e-14
4865.82 3.831e-14
4868.52 3.8639e-14
4871.23 3.9684e-14
4873.93 4.0328e-14
4876.63 4.0358e-14
4879.34 4.1174e-14
4882.04 4.1178e-14
4884.74 4.1121e-14
4887.45 4.1314e-14
4890.15 4.1533e-14
4892.85 4.1767e-14
4895.56 4.2633e-14
4898.26 4.3668e-14
4900.96 4.4047e-14
4903.67 4.419e-14
4906.37 4.3422e-14
4909.07 4.2978e-14
4911.78 4.267e-14
4914.48 4.2497e-14
4917.18 4.195e-14
4919.89 4.1185e-14
4922.59 4.1047e-14
4925.29 4.1588e-14
4928.0 4.2555e-14
4930.7 4.3627e-14
4933.4 4.3244e-14
4936.11 4.3048e-14
4938.81 4.3265e-14
4941.51 4.3188e-14
4944.22 4.4546e-14
4946.92 4.5087e-14
4949.62 4.5242e-14
4952.33 4.487e-14
4955.03 4.4011e-14
4957.73 4.3068e-14
4960.44 4.2896e-14
4963.14 4.227e-14
4965.84 4.2278e-14
4968.55 4.2635e-14
4971.25 4.2248e-14
4973.95 4.2769e-14
4976.66 4.233e-14
4979.36 4.1724e-14
4982.06 4.1441e-14
4984.77 4.1205e-14
4987.47 4.1032e-14
4990.17 4.0919e-14
4992.88 4.0778e-14
4995.58 4.1253e-14
4998.28 4.089e-14
5000.99 4.0215e-14
5003.69 4.0147e-14
5006.39 3.9626e-14
5009.1 3.8933e-14
5011.8 3.888e-14
5014.5 3.8557e-14
5017.21 3.8621e-14
5019.91 3.8795e-14
5022.61 3.8966e-14
5025.32 3.9483e-14
5028.02 3.996e-14
5030.73 4.061e-14
5033.43 4.0998e-14
5036.13 3.996e-14
5038.84 3.9637e-14
5041.54 3.923e-14
5044.24 3.9263e-14
5046.95 4.008e-14
5049.65 4.0297e-14
5052.35 4.0764e-14
5055.06 4.1305e-14
5057.76 4.2072e-14
5060.46 4.198e-14
5063.17 4.1945e-14
5065.87 4.1318e-14
5068.57 4.0816e-14
5071.28 3.9592e-14
5073.98 3.9677e-14
5076.68 3.9445e-14
5079.39 3.9085e-14
5082.09 3.906e-14
5084.79 3.8901e-14
5087.5 3.9329e-14
5090.2 4.0256e-14
5092.9 4.0443e-14
5095.61 4.0097e-14
5098.31 4.0087e-14
5101.01 3.9814e-14
5103.72 3.9283e-14
5106.42 3.9126e-14
5109.12 3.8961e-14
5111.83 3.9253e-14
5114.53 3.9615e-14
5117.23 3.9724e-14
5119.94 3.9814e-14
5122.64 3.959e-14
5125.34 3.883e-14
5128.05 3.7904e-14
5130.75 3.8038e-14
5133.45 3.8872e-14
5136.16 3.912e-14
5138.86 3.8464e-14
5141.56 3.806e-14
5144.27 3.7796e-14
5146.97 3.7527e-14
5149.67 3.7743e-14
5152.38 3.8025e-14
5155.08 3.7713e-14
5157.78 3.8416e-14
5160.49 3.7735e-14
5163.19 3.5947e-14
5165.89 3.3582e-14
5168.6 3.1784e-14
5171.3 3.1033e-14
5174.0 3.1166e-14
5176.71 3.1495e-14
5179.41 3.2261e-14
5182.11 3.2716e-14
5184.82 3.2909e-14
5187.52 3.4562e-14
5190.22 3.5897e-14
5192.93 3.7035e-14
5195.63 3.8623e-14
5198.33 3.9257e-14
5201.04 3.8447e-14
5203.74 3.7771e-14
5206.44 3.7658e-14
5209.15 3.7485e-14
5211.85 3.8552e-14
5214.55 3.9812e-14
5217.26 4.0612e-14
5219.96 4.1149e-14
5222.66 4.1672e-14
5225.37 4.141e-14
5228.07 4.0916e-14
5230.77 4.1296e-14
5233.48 4.167e-14
5236.18 4.2186e-14
5238.88 4.2966e-14
5241.59 4.2878e-14
5244.29 4.3011e-14
5246.99 4.3379e-14
5249.7 4.2575e-14
5252.4 4.2404e-14
5255.1 4.1753e-14
5257.81 4.1582e-14
5260.51 4.0697e-14
5263.21 3.9367e-14
5265.92 3.7943e-14
5268.62 3.743e-14
5271.32 3.7919e-14
5274.03 3.9165e-14
5276.73 4.0586e-14
5279.44 4.1994e-14
5282.14 4.3148e-14
5284.84 4.403e-14
5287.55 4.4315e-14
5290.25 4.5176e-14
5292.95 4.5088e-14
5295.66 4.4338e-14
5298.36 4.3491e-14
5301.06 4.3597e-14
5303.77 4.4518e-14
5306.47 4.5275e-14
5309.17 4.6295e-14
5311.88 4.682e-14
5314.58 4.6418e-14
5317.28 4.5429e-14
5319.99 4.4685e-14
5322.69 4.4095e-14
5325.39 4.2939e-14
5328.1 4.205e-14
5330.8 4.1635e-14
5333.5 4.2344e-14
5336.21 4.3102e-14
5338.91 4.3172e-14
5341.61 4.3916e-14
5344.32 4.3578e-14
5347.02 4.4019e-14
5349.72 4.3915e-14
5352.43 4.5016e-14
5355.13 4.6075e-14
5357.83 4.6465e-14
5360.54 4.6285e-14
5363.24 4.5105e-14
5365.94 4.4368e-14
5368.65 4.3785e-14
5371.35 4.334e-14
5374.05 4.4088e-14
5376.76 4.524e-14
5379.46 4.5574e-14
5382.16 4.5658e-14
5384.87 4.4889e-14
5387.57 4.461e-14
5390.27 4.4298e-14
5392.98 4.3165e-14
5395.68 4.2615e-14
5398.38 4.1997e-14
5401.09 4.1515e-14
5403.79 4.1618e-14
5406.49 4.1912e-14
5409.2 4.2219e-14
5411.9 4.3107e-14
5414.6 4.4239e-14
5417.31 4.438e-14
5420.01 4.4721e-14
5422.71 4.487e-14
5425.42 4.3889e-14
5428.12 4.3415e-14
5430.82 4.3582e-14
5433.53 4.328e-14
5436.23 4.3375e-14
5438.93 4.3954e-14
5441.64 4.473e-14
5444.34 4.4593e-14
5447.04 4.4146e-14
5449.75 4.3331e-14
5452.45 4.2874e-14
5455.15 4.2266e-14
5457.86 4.2528e-14
5460.56 4.2578e-14
5463.26 4.1938e-14
5465.97 4.2894e-14
5468.67 4.2986e-14
5471.37 4.3283e-14
5474.08 4.2271e-14
5476.78 4.2522e-14
5479.48 4.1636e-14
5482.19 4.2854e-14
5484.89 4.3184e-14
5487.59 4.2827e-14
5490.3 4.3466e-14
5493.0 4.3649e-14
5495.7 4.3855e-14
5498.41 4.3344e-14
5501.11 4.3762e-14
5503.81 4.2711e-14
5506.52 4.2491e-14
5509.22 4.1476e-14
5511.92 4.2563e-14
5514.63 4.2873e-14
5517.33 4.3174e-14
5520.03 4.3447e-14
5522.74 4.3655e-14
5525.44 4.3729e-14
5528.15 4.3173e-14
5530.85 4.351e-14
5533.55 4.405e-14
5536.26 4.4123e-14
5538.96 4.4375e-14
5541.66 4.4904e-14
5544.37 4.4684e-14
5547.07 4.5158e-14
5549.77 4.5411e-14
5552.48 4.5252e-14
5555.18 4.4967e-14
5557.88 4.4688e-14
5560.59 4.4263e-14
5563.29 4.3837e-14
5565.99 4.3706e-14
5568.7 4.3382e-14
5571.4 4.3577e-14
5574.1 4.303e-14
5576.81 4.3186e-14
5579.51 4.2603e-14
5582.21 4.3195e-14
5584.92 4.2498e-14
5587.62 4.2418e-14
5590.32 4.1589e-14
5593.03 4.0866e-14
5595.73 4.1915e-14
5598.43 4.2377e-14
5601.14 4.2632e-14
5603.84 4.2569e-14
5606.54 4.287e-14
5609.25 4.3745e-14
5611.95 4.3054e-14
5614.65 4.2774e-14
5617.36 4.2631e-14
5620.06 4.1954e-14
5622.76 4.2467e-14
5625.47 4.2787e-14
5628.17 4.3265e-14
5630.87 4.312e-14
5633.58 4.3489e-14
5636.28 4.334e-14
5638.98 4.3022e-14
5641.69 4.3223e-14
5644.39 4.2686e-14
5647.09 4.3783e-14
5649.8 4.3416e-14
5652.5 4.3258e-14
5655.2 4.2895e-14
5657.91 4.2988e-14
5660.61 4.2665e-14
5663.31 4.2664e-14
5666.02 4.2409e-14
5668.72 4.3039e-14
5671.42 4.3698e-14
5674.13 4.4648e-14
5676.83 4.3878e-14
5679.53 4.3569e-14
5682.24 4.2643e-14
5684.94 4.2866e-14
5687.64 4.3646e-14
5690.35 4.3043e-14
5693.05 4.4119e-14
5695.75 4.4659e-14
5698.46 4.3532e-14
5701.16 4.2452e-14
5703.86 4.2096e-14
5706.57 4.2471e-14
5709.27 4.226e-14
5711.97 4.2146e-14
5714.68 4.2719e-14
5717.38 4.3917e-14
5720.08 4.4785e-14
5722.79 4.5303e-14
5725.49 4.4613e-14
5728.19 4.5187e-14
5730.9 4.5193e-14
5733.6 4.4732e-14
5736.3 4.4529e-14
5739.01 4.5051e-14
5741.71 4.4461e-14
5744.41 4.5723e-14
5747.12 4.4872e-14
5749.82 4.4436e-14
5752.52 4.453e-14
5755.23 4.4619e-14
5757.93 4.4314e-14
5760.63 4.4983e-14
5763.34 4.521e-14
5766.04 4.5349e-14
5768.74 4.5499e-14
5771.45 4.5704e-14
5774.15 4.4798e-14
5776.86 4.4399e-14
5779.56 4.3674e-14
5782.26 4.2758e-14
5784.97 4.3106e-14
5787.67 4.3911e-14
5790.37 4.4267e-14
5793.08 4.4126e-14
5795.78 4.465e-14
5798.48 4.5574e-14
5801.19 4.6327e-14
5803.89 4.6194e-14
5806.59 4.6047e-14
5809.3 4.5736e-14
5812.0 4.5598e-14
5814.7 4.5559e-14
5817.41 4.6787e-14
5820.11 4.657e-14
5822.81 4.6112e-14
5825.52 4.6143e-14
5828.22 4.6267e-14
5830.92 4.5466e-14
5833.63 4.5183e-14
5836.33 4.5645e-14
5839.03 4.5342e-14
5841.74 4.5049e-14
5844.44 4.4913e-14
5847.14 4.5027e-14
5849.85 4.5101e-14
5852.55 4.4051e-14
5855.25 4.3879e-14
5857.96 4.3641e-14
5860.66 4.3227e-14
5863.36 4.3728e-14
5866.07 4.4007e-14
5868.77 4.4139e-14
5871.47 4.4638e-14
5874.18 4.345e-14
5876.88 4.2604e-14
5879.58 4.2911e-14
5882.29 4.1355e-14
5884.99 3.8907e-14
5887.69 3.7211e-14
5890.4 3.5348e-14
5893.1 3.4568e-14
5895.8 3.5327e-14
5898.51 3.6492e-14
5901.21 3.7823e-14
5903.91 3.9678e-14
5906.62 4.1075e-14
5909.32 4.1806e-14
5912.02 4.2508e-14
5914.73 4.2858e-14
5917.43 4.2838e-14
5920.13 4.3127e-14
5922.84 4.3013e-14
5925.54 4.2604e-14
5928.24 4.3275e-14
5930.95 4.3037e-14
5933.65 4.3261e-14
5936.35 4.3485e-14
5939.06 4.3554e-14
5941.76 4.3243e-14
5944.46 4.3038e-14
5947.17 4.3553e-14
5949.87 4.3321e-14
5952.57 4.3452e-14
5955.28 4.3729e-14
5957.98 4.341e-14
5960.68 4.3637e-14
5963.39 4.4224e-14
5966.09 4.3741e-14
5968.79 4.4268e-14
5971.5 4.4319e-14
5974.2 4.4132e-14
5976.9 4.3644e-14
5979.61 4.2922e-14
5982.31 4.2591e-14
5985.01 4.3129e-14
5987.72 4.343e-14
5990.42 4.3517e-14
5993.12 4.3468e-14
5995.83 4.3701e-14
5998.53 4.3902e-14
6001.23 4.3303e-14
6003.94 4.2954e-14
6006.64 4.329e-14
6009.34 4.2516e-14
6012.05 4.3361e-14
6014.75 4.2761e-14
6017.45 4.2687e-14
6020.16 4.2995e-14
6022.86 4.3415e-14
6025.57 4.4025e-14
6028.27 4.3939e-14
6030.97 4.4367e-14
6033.68 4.4932e-14
6036.38 4.4893e-14
6039.08 4.4569e-14
6041.79 4.5455e-14
6044.49 4.5736e-14
6047.19 4.5962e-14
6049.9 4.4957e-14
6052.6 4.52e-14
6055.3 4.4856e-14
6058.01 4.462e-14
6060.71 4.4713e-14
6063.41 4.3735e-14
6066.12 4.3902e-14
6068.82 4.5043e-14
6071.52 4.5051e-14
6074.23 4.5089e-14
6076.93 4.4289e-14
6079.63 4.4124e-14
6082.34 4.4314e-14
6085.04 4.3332e-14
6087.74 4.3952e-14
6090.45 4.3871e-14
6093.15 4.3166e-14
6095.85 4.3585e-14
6098.56 4.3496e-14
6101.26 4.3173e-14
6103.96 4.3763e-14
6106.67 4.305e-14
6109.37 4.4314e-14
6112.07 4.4559e-14
6114.78 4.3794e-14
6117.48 4.348e-14
6120.18 4.3419e-14
6122.89 4.2833e-14
6125.59 4.3319e-14
6128.29 4.4138e-14
6131.0 4.3507e-14
6133.7 4.3282e-14
6136.4 4.3416e-14
6139.11 4.3735e-14
6141.81 4.322e-14
6144.51 4.3065e-14
6147.22 4.3649e-14
6149.92 4.3665e-14
6152.62 4.3132e-14
6155.33 4.277e-14
6158.03 4.199e-14
6160.73 4.0726e-14
6163.44 3.9335e-14
6166.14 4.1279e-14
6168.84 4.1556e-14
6171.55 4.1533e-14
6174.25 4.2347e-14
6176.95 4.2751e-14
6179.66 4.3039e-14
6182.36 4.2789e-14
6185.06 4.3053e-14
6187.77 4.2101e-14
6190.47 4.2242e-14
6193.17 4.2314e-14
6195.88 4.1952e-14
6198.58 4.333e-14
6201.28 4.3538e-14
6203.99 4.4006e-14
6206.69 4.3154e-14
6209.39 4.3276e-14
6212.1 4.2133e-14
6214.8 4.202e-14
6217.5 4.075e-14
6220.21 4.1809e-14
6222.91 4.0246e-14
6225.61 3.9893e-14
6228.32 4.094e-14
6231.02 4.0915e-14
6233.72 4.0873e-14
6236.43 4.0811e-14
6239.13 4.1403e-14
6241.83 4.1617e-14
6244.54 4.1044e-14
6247.24 4.0846e-14
6249.94 4.0393e-14
6252.65 4.0814e-14
6255.35 4.0736e-14
6258.05 4.0402e-14
6260.76 4.0646e-14
6263.46 4.1889e-14
6266.16 4.1477e-14
6268.87 4.1842e-14
6271.57 4.2338e-14
6274.28 4.185e-14
6276.98 4.1457e-14
6279.68 4.1455e-14
6282.39 4.1834e-14
6285.09 4.2298e-14
6287.79 4.1759e-14
6290.5 4.2141e-14
6293.2 4.069e-14
6295.9 4.1502e-14
6298.61 3.9971e-14
6301.31 4.1516e-14
6304.01 4.1271e-14
6306.72 4.1407e-14
6309.42 4.139e-14
6312.12 4.1371e-14
6314.83 4.0652e-14
6317.53 4.1359e-14
6320.23 4.1383e-14
6322.94 4.2078e-14
6325.64 4.2155e-14
6328.34 4.2254e-14
6331.05 4.2851e-14
6333.75 4.2212e-14
6336.45 4.2149e-14
6339.16 4.2015e-14
6341.86 4.195e-14
6344.56 4.2108e-14
6347.27 4.2453e-14
6349.97 4.3103e-14
6352.67 4.1984e-14
6355.38 4.1605e-14
6358.08 4.1285e-14
6360.78 4.1151e-14
6363.49 4.086e-14
6366.19 4.13e-14
6368.89 4.2102e-14
6371.6 4.2861e-14
6374.3 4.3122e-14
6377.0 4.306e-14
6379.71 4.3196e-14
6382.41 4.3336e-14
6385.11 4.2929e-14
6387.82 4.2778e-14
6390.52 4.2781e-14
6393.22 4.2248e-14
6395.93 4.1715e-14
6398.63 4.2578e-14
6401.33 4.2412e-14
6404.04 4.2275e-14
6406.74 4.1777e-14
6409.44 4.1664e-14
6412.15 4.1219e-14
6414.85 4.0788e-14
6417.55 4.1607e-14
6420.26 4.1653e-14
6422.96 4.1612e-14
6425.66 4.1267e-14
6428.37 4.1905e-14
6431.07 4.2553e-14
6433.77 4.2316e-14
6436.48 4.1802e-14
6439.18 4.2351e-14
6441.88 4.2111e-14
6444.59 4.2005e-14
6447.29 4.2007e-14
6449.99 4.1729e-14
6452.7 4.158e-14
6455.4 4.2371e-14
6458.1 4.2357e-14
6460.81 4.2876e-14
6463.51 4.2691e-14
6466.21 4.2669e-14
6468.92 4.319e-14
6471.62 4.275e-14
6474.32 4.3139e-14
6477.03 4.3061e-14
6479.73 4.2862e-14
6482.43 4.2681e-14
6485.14 4.2284e-14
6487.84 4.172e-14
6490.54 4.1438e-14
6493.25 4.0659e-14
6495.95 4.0655e-14
6498.65 4.045e-14
6501.36 3.9762e-14
6504.06 4.1123e-14
6506.76 4.1967e-14
6509.47 4.2776e-14
6512.17 4.2788e-14
6514.87 4.2349e-14
6517.58 4.236e-14
6520.28 4.3208e-14
6522.99 4.2803e-14
6525.69 4.298e-14
6528.39 4.3093e-14
6531.1 4.2958e-14
6533.8 4.3366e-14
6536.5 4.2781e-14
6539.21 4.317e-14
6541.91 4.2312e-14
6544.61 4.3139e-14
6547.32 4.2138e-14
6550.02 4.1583e-14
6552.72 4.0756e-14
6555.43 3.9906e-14
6558.13 3.9938e-14
6560.83 3.8878e-14
6563.54 3.794e-14
6566.24 3.8714e-14
6568.94 3.9087e-14
6571.65 3.9633e-14
6574.35 4.0884e-14
6577.05 4.0989e-14
6579.76 4.1272e-14
6582.46 4.1749e-14
6585.16 4.1673e-14
6587.87 4.2185e-14
6590.57 4.225e-14
6593.27 4.1199e-14
6595.98 4.1612e-14
6598.68 4.1958e-14
6601.38 4.0946e-14
6604.09 4.0687e-14
6606.79 4.0975e-14
6609.49 4.0917e-14
6612.2 4.1137e-14
6614.9 4.1338e-14
6617.6 4.0986e-14
6620.31 4.1292e-14
6623.01 4.1631e-14
6625.71 4.1641e-14
6628.42 4.1149e-14
6631.12 4.0498e-14
6633.82 3.9794e-14
6636.53 4.0764e-14
6639.23 4.091e-14
6641.93 4.0404e-14
6644.64 3.9986e-14
6647.34 4.0468e-14
6650.04 4.0871e-14
6652.75 4.0717e-14
6655.45 3.9854e-14
6658.15 4.0282e-14
6660.86 3.9468e-14
6663.56 4.0379e-14
6666.26 4.0414e-14
6668.97 3.9278e-14
6671.67 3.9881e-14
6674.37 3.922e-14
6677.08 3.9785e-14
6692.26 4.1464e-14
6707.69 4.1284e-14
6723.15 3.8538e-14
6738.65 4.0926e-14
6754.18 3.9912e-14
6769.75 4.1135e-14
6785.36 4.1718e-14
6801.0 4.0034e-14
6816.68 4.0601e-14
6832.39 4.1557e-14
6848.14 3.8793e-14
6863.93 3.9072e-14
6879.75 3.9535e-14
6895.61 3.9819e-14
6911.5 4.0105e-14
6927.44 3.9839e-14
6943.41 4.1155e-14
6959.41 4.0414e-14
6975.46 4.2524e-14
6991.54 4.234e-14
7007.65 4.0725e-14
7023.81 3.9172e-14
7040.0 4.1984e-14
7056.23 4.3671e-14
7072.5 3.9383e-14
7088.8 4.0872e-14
7105.14 3.9042e-14
7121.52 3.8963e-14
7137.94 3.6624e-14
7154.39 3.7057e-14
7170.88 3.7153e-14
7187.42 3.6652e-14
7203.98 3.7689e-14
7220.59 3.8934e-14
7237.24 3.976e-14
7253.92 4.0046e-14
7270.64 3.9235e-14
7287.4 3.9518e-14
7304.2 4.1678e-14
7321.04 4.1212e-14
7337.91 4.1223e-14
7354.83 4.2292e-14
7371.79 4.115e-14
7388.78 4.2608e-14
7405.81 4.2619e-14
7422.89 4.0994e-14
7440.0 4.2839e-14
7457.15 4.3547e-14
7474.34 4.4165e-14
7491.57 4.3072e-14
7508.84 4.4189e-14
7526.15 4.4816e-14
7543.5 4.4932e-14
7560.89 4.3719e-14
7578.32 4.2637e-14
7595.79 4.2064e-14
7613.29 4.1498e-14
7630.85 4.1701e-14
7648.44 4.2196e-14
7666.07 3.9938e-14
7683.74 4.0505e-14
7701.45 4.0145e-14
7719.21 3.9697e-14
7737.0 3.9983e-14
7754.84 3.8194e-14
7772.71 4.0098e-14
7790.63 3.9741e-14
7808.59 3.957e-14
7826.59 4.1256e-14
7844.63 3.941e-14
7862.72 4.0526e-14
7880.84 4.0166e-14
7899.01 4.1019e-14
7917.22 3.9184e-14
7935.47 3.9376e-14
7953.76 3.7442e-14
7972.1 3.958e-14
7990.48 4.0607e-14
8008.9 3.924e-14
8027.36 4.1386e-14
8045.87 4.2168e-14
8064.41 4.2083e-14
8083.0 4.0016e-14
8101.63 3.8314e-14
8120.31 4.0972e-14
8139.03 4.089e-14
8157.79 3.9879e-14
8176.6 3.9891e-14
8195.45 3.8815e-14
8214.34 4.1032e-14
8233.28 4.0203e-14
8252.26 4.1246e-14
8271.28 4.2414e-14
8290.35 4.0239e-14
8309.46 4.0343e-14
8328.61 3.8806e-14
8347.81 3.9087e-14
8367.06 4.0566e-14
8386.34 3.8841e-14
8405.68 3.9393e-14
8425.06 4.0416e-14
8444.48 3.5784e-14
8463.94 3.8178e-14
8483.46 3.926e-14
8503.01 3.7504e-14
8522.61 3.6746e-14
8542.26 3.7787e-14
8561.95 3.859e-14
8581.69 3.8602e-14
8601.47 3.8437e-14
8621.3 3.7229e-14
8641.17 3.8995e-14
8661.09 3.8032e-14
8681.06 3.7263e-14
8701.07 3.762e-14
8721.13 3.8243e-14
8741.23 3.9782e-14
8761.39 3.8443e-14
8781.58 3.7928e-14
8801.82 3.8556e-14
8822.12 3.9924e-14
8842.45 3.9753e-14
8862.83 4.0041e-14
8883.27 3.6698e-14
8903.75 3.7478e-14
8924.27 3.7924e-14
8944.85 3.8464e-14
8965.46 3.6999e-14
8986.13 3.6503e-14
9006.84 3.7885e-14
9027.61 3.5695e-14
9048.42 3.9879e-14
9069.28 3.8895e-14
9090.19 3.5321e-14
9111.14 3.7083e-14
9132.14 3.9202e-14
9153.2 3.7192e-14
9174.3 3.7548e-14
9195.44 3.7131e-14
9216.64 3.6718e-14
9237.89 3.6477e-14
9259.18 3.6826e-14
9280.53 3.8309e-14
9301.92 3.6429e-14
9323.37 3.86e-14
9344.86 3.8435e-14
9366.4 3.7833e-14
9387.99 3.8461e-14
9409.63 3.7858e-14
9431.33 3.8753e-14
9453.07 3.8234e-14
9474.86 3.9138e-14
9496.7 3.9151e-14
9518.59 3.8361e-14
9540.53 3.8729e-14
9562.53 3.8475e-14
9584.57 3.9113e-14
9606.67 3.859e-14
9628.81 3.887e-14
9651.01 3.8086e-14
9673.26 3.8187e-14
9695.56 3.8731e-14
9717.9 3.8037e-14
9740.31 3.7615e-14
9762.76 3.7714e-14
9785.27 3.7124e-14
9807.83 3.8177e-14
9830.43 3.784e-14
9853.09 3.8028e-14
9875.81 3.7779e-14
9898.57 3.7706e-14
9921.4 3.7116e-14
9944.27 3.7645e-14
9967.19 3.7658e-14
9990.17 3.7585e-14
10036.27 3.7698e-14
10082.61 3.7292e-14
10129.14 3.7664e-14
10175.89 3.7259e-14
10222.87 3.7372e-14
10270.05 3.7485e-14
10293.73 3.7326e-14
10509.27 3.626e-14
10704.66 3.4792e-14
10903.67 3.3689e-14
11106.38 3.2099e-14
11312.86 3.1368e-14
11496.68 3.108e-14
11710.43 3.0164e-14
11900.71 2.9073e-14
12094.08 2.8411e-14
12290.59 2.7957e-14
12490.3 2.7132e-14
12693.25 2.6454e-14
12899.5 2.5851e-14
13109.1 2.5321e-14
13291.46 2.4518e-14
13507.43 2.4015e-14
13695.34 2.3577e-14
13885.86 2.2672e-14
14111.49 2.1701e-14
14307.8 2.1354e-14
14506.84 2.1453e-14
14708.65 2.0677e-14
14913.27 2.0916e-14
15085.95 2.1013e-14
15295.82 2.1354e-14
15508.6 2.111e-14
15688.19 2.0772e-14
15906.43 2.0113e-14
16090.63 2.016e-14
16314.45 1.9975e-14
16503.37 1.9701e-14
16694.47 1.9431e-14
16887.79 1.912e-14
17083.33 1.8599e-14
17281.15 1.7885e-14
17481.26 1.7238e-14
17683.69 1.6538e-14
17888.46 1.5867e-14
18095.58 1.5118e-14
18305.13 1.4706e-14
18517.09 1.4174e-14
18688.42 1.3567e-14
18904.82 1.3137e-14
19079.76 1.2897e-14
19300.7 1.243e-14
19479.27 1.1926e-14
19704.83 1.1521e-14
19887.17 1.113e-14
20117.43 1.0927e-14
20303.59 1.0531e-14
20491.44 1.0363e-14
20681.05 1.0081e-14
20920.54 9.8285e-15
21114.1 9.6491e-15
21309.47 9.4077e-15
21506.65 9.1936e-15
21705.64 8.902e-15
21906.49 8.7194e-15
22109.2 8.4428e-15
22313.76 8.2127e-15
22520.23 8.0073e-15
22676.32 7.7712e-15
22886.15 6.958e-15
23097.9 6.8784e-15
23311.63 5.9908e-15
23473.21 5.6427e-15
23690.42 5.708e-15
23909.63 5.2298e-15
24075.35 5.0639e-15
24298.13 4.9829e-15
24522.94 4.629e-15
24692.94 4.5445e-15
24921.41 3.8061e-15
25094.17 3.7367e-15
25326.34 3.7626e-15
25501.91 3.7281e-15
25678.67 3.7887e-15
25916.28 3.7195e-15
26095.91 3.711e-15
26276.82 3.6098e-15
26519.97 3.5685e-15
26703.78 3.4953e-15
26888.87 3.4394e-15
27075.27 3.3766e-15
27325.77 3.2998e-15
27515.2 3.2545e-15
27705.92 3.1731e-15
27897.98 3.1296e-15
28091.35 3.0583e-15
28286.09 3.0094e-15
28482.14 2.9409e-15
28679.59 2.8806e-15
28878.37 2.828e-15
29078.56 2.7764e-15
29280.11 2.7132e-15
29483.09 2.6576e-15
29687.44 2.6151e-15
29893.21 2.5556e-15
30100.44 2.5147e-15
30309.07 2.4688e-15
30519.18 2.4349e-15
30730.71 2.396e-15
30872.58 2.3577e-15
31086.57 2.3253e-15
31302.03 2.2934e-15
31519.03 2.2516e-15
31664.5 2.2156e-15
31884.01 2.1852e-15
32105.0 2.1502e-15
32327.56 2.1159e-15
32476.77 2.0868e-15
32701.87 2.0535e-15
32928.57 2.03e-15
33080.55 1.9975e-15
33309.87 1.952e-15
33463.61 1.9164e-15
33695.55 1.8771e-15
33929.14 1.8428e-15
34085.74 1.805e-15
34322.03 1.7762e-15
34480.44 1.7438e-15
34719.43 1.708e-15
34879.72 1.6768e-15
35121.47 1.6462e-15
35283.57 1.6124e-15
35528.17 1.583e-15
35692.15 1.5505e-15
35939.57 1.5222e-15
36105.45 1.4979e-15
36272.1 1.4672e-15
36523.54 1.4371e-15
36692.12 1.4109e-15
36861.47 1.3788e-15
37117.0 1.3505e-15
37288.31 1.3289e-15
37460.42 1.2986e-15
37720.1 1.2808e-15
37894.2 1.2545e-15
38069.1 1.2316e-15
38333.0 1.2092e-15
38509.93 1.1871e-15
38687.66 1.1627e-15
38866.27 1.1415e-15
39135.66 1.1207e-15
39316.33 1.1002e-15
39497.79 1.0777e-15
39680.09 1.058e-15
39863.23 1.0339e-15
40139.58 1.0174e-15
40324.84 1.0011e-15
40510.96 9.8059e-16
40697.98 9.6269e-16
40885.82 9.473e-16
41074.53 9.3215e-16
41264.15 9.1514e-16
41454.6 8.9843e-16
41741.93 8.8407e-16
41934.63 8.6793e-16
42128.18 8.5209e-16
42322.62 8.404e-16
42518.01 8.2506e-16
42714.25 8.1374e-16
42911.39 7.7891e-16
43109.49 7.4385e-16
43308.46 6.6463e-16
43508.35 6.5492e-16
43709.16 6.4517e-16
43910.95 6.3537e-16
44113.62 6.2553e-16
44317.22 6.1642e-16
44521.82 6.0729e-16
44727.3 5.9813e-16
44933.74 5.8892e-16
45141.18 5.8017e-16
45349.53 5.7163e-16
45454.06 5.6734e-16
45663.85 5.5874e-16
45874.66 5.501e-16
46086.4 5.4204e-16
46299.11 5.3403e-16
46512.85 5.2598e-16
46727.52 5.179e-16
46943.19 5.1016e-16
47051.4 5.0642e-16
47268.62 4.989e-16
47486.78 4.9136e-16
47705.96 4.8377e-16
47926.19 4.7664e-16
48147.39 4.6961e-16
48258.38 4.6608e-16
48481.11 4.59e-16
48704.93 4.5189e-16
48929.72 4.4531e-16
49155.56 4.3872e-16
49268.86 4.3541e-16
49496.32 4.2877e-16
49724.76 4.222e-16
49954.26 4.1604e-16
50069.42 4.1295e-16
50300.56 4.0675e-16
50532.72 4.0053e-16
50649.2 3.974e-16
50765.96 3.9446e-16
50883.03 3.9158e-16
51000.32 3.8869e-16
51117.88 3.8579e-16
51235.71 3.8289e-16
51353.81 3.7998e-16
51472.18 3.7706e-16
51590.83 3.7414e-16
51709.81 3.7124e-16
51829.0 3.6855e-16
51948.47 3.6584e-16
52068.22 3.6313e-16
52188.24 3.6042e-16
52308.53 3.5769e-16
52429.17 3.5496e-16
52550.02 3.5223e-16
52671.15 3.4949e-16
52792.56 3.4686e-16
52914.25 3.4433e-16
53036.23 3.4179e-16
53158.48 3.3925e-16
53281.07 3.367e-16
53403.89 3.3415e-16
53526.99 3.3159e-16
53650.37 3.2902e-16
53774.04 3.2645e-16
53897.99 3.2407e-16
54022.23 3.217e-16
54146.81 3.1932e-16
54271.63 3.1694e-16
54396.73 3.1455e-16
54522.11 3.1215e-16
54647.79 3.0975e-16
54773.76 3.0734e-16
54900.08 3.05e-16
55026.62 3.0278e-16
55153.47 3.0055e-16
55280.6 2.9832e-16
55408.02 2.9609e-16
55535.74 2.9385e-16
55663.76 2.916e-16
55792.13 2.8935e-16
55920.73 2.8709e-16
56049.63 2.8496e-16
56178.83 2.8288e-16
56308.33 2.8079e-16
56438.12 2.787e-16
56568.28 2.766e-16
56698.67 2.745e-16
56829.37 2.724e-16
56960.36 2.7028e-16
57091.66 2.6819e-16
57223.26 2.6624e-16
57355.17 2.6429e-16
57487.43 2.6233e-16
57619.95 2.6037e-16
57752.76 2.584e-16
57885.89 2.5643e-16
58019.32 2.5445e-16
58153.06 2.5247e-16
58287.11 2.5058e-16
58421.53 2.4875e-16
58556.19 2.4692e-16
58691.17 2.4508e-16
58826.45 2.4324e-16
58962.05 2.4139e-16
59097.97 2.3955e-16
59234.26 2.3769e-16
59370.8 2.3583e-16
59507.65 2.3411e-16
59644.82 2.324e-16
59782.3 2.3068e-16
59920.11 2.2896e-16
60058.23 2.2723e-16
60196.73 2.255e-16
60335.49 2.2377e-16
60474.57 2.2203e-16
60613.97 2.2034e-16
60753.68 2.1873e-16
60893.73 2.1712e-16
61034.16 2.1551e-16
61174.85 2.139e-16
61315.86 2.1228e-16
61457.19 2.1065e-16
61598.86 2.0903e-16
61740.85 2.074e-16
61883.16 2.0586e-16
62025.88 2.0436e-16
62168.85 2.0285e-16
62312.15 2.0134e-16
62455.79 1.9982e-16
62599.76 1.983e-16
62744.05 1.9678e-16
62888.75 1.9526e-16
63033.71 1.9375e-16
63179.01 1.9234e-16
63324.64 1.9093e-16
63470.61 1.8951e-16
63616.91 1.8809e-16
63763.56 1.8667e-16
63910.61 1.8525e-16
64057.92 1.8382e-16
64205.58 1.8239e-16
64353.58 1.8102e-16
64501.92 1.797e-16
64650.6 1.7838e-16
64799.62 1.7705e-16
64949.06 1.7572e-16
65098.78 1.7439e-16
65248.84 1.7305e-16
65399.24 1.7171e-16
65549.98 1.7037e-16
65701.08 1.6913e-16
65852.6 1.6789e-16
66004.4 1.6665e-16
66156.55 1.654e-16
66309.04 1.6416e-16
66461.89 1.6291e-16
66615.08 1.6165e-16
66768.64 1.604e-16
66922.61 1.5917e-16
67076.88 1.5802e-16
67231.5 1.5685e-16
67386.47 1.5569e-16
67541.8 1.5452e-16
67697.49 1.5335e-16
67853.61 1.5218e-16
68010.02 1.51e-16
68166.78 1.4983e-16
68323.91 1.4872e-16
68481.4 1.4763e-16
68639.26 1.4654e-16
68797.48 1.4545e-16
68956.14 1.4435e-16
69115.08 1.4326e-16
69274.4 1.4216e-16
69434.08 1.4106e-16
69594.13 1.3996e-16
69754.55 1.3895e-16
69915.42 1.3793e-16
70076.58 1.3691e-16
70238.11 1.3588e-16
70400.01 1.3486e-16
70562.29 1.3383e-16
70724.94 1.328e-16
70887.97 1.3176e-16
71051.45 1.3077e-16
71215.23 1.2982e-16
71379.39 1.2886e-16
71543.92 1.279e-16
71708.83 1.2694e-16
71874.13 1.2598e-16
72039.8 1.2501e-16
72205.93 1.2405e-16
72372.38 1.2308e-16
72539.2 1.2218e-16
72706.41 1.2129e-16
72874.0 1.2039e-16
73041.98 1.1949e-16
73210.43 1.1859e-16
73379.18 1.1769e-16
73548.33 1.1678e-16
73717.86 1.1587e-16
73887.78 1.1499e-16
74058.1 1.1415e-16
74228.81 1.1331e-16
74399.99 1.1247e-16
74571.5 1.1163e-16
74743.38 1.1078e-16
74915.68 1.0994e-16
75088.36 1.0909e-16
75261.45 1.0824e-16
75435.01 1.0744e-16
75608.89 1.0665e-16
75783.18 1.0586e-16
75957.87 1.0507e-16
76132.95 1.0428e-16
76308.44 1.0349e-16
76484.34 1.027e-16
76660.73 1.019e-16
76837.44 1.0111e-16
77014.55 1.0038e-16
77192.08 9.9641e-17
77370.01 9.8903e-17
77548.35 9.8163e-17
77727.11 9.7422e-17
77906.36 9.6678e-17
78085.94 9.5933e-17
78265.93 9.5186e-17
78446.34 9.4471e-17
78627.17 9.3782e-17
78808.41 9.3091e-17
78990.15 9.2399e-17
79172.23 9.1705e-17
79354.73 9.1009e-17
79537.64 9.0312e-17
79720.99 8.9613e-17
79904.75 8.8913e-17
80088.93 8.8265e-17
80273.63 8.7618e-17
80458.67 8.697e-17
80644.13 8.6321e-17
80830.02 8.567e-17
81016.34 8.5018e-17
81203.09 8.4364e-17
81390.36 8.3709e-17
81577.96 8.307e-17
81766.01 8.2465e-17
81954.48 8.1859e-17
82143.4 8.1251e-17
82332.74 8.0642e-17
82522.53 8.0032e-17
82712.84 7.942e-17
82903.5 7.8807e-17
83094.59 7.8192e-17
83286.13 7.7613e-17
83478.12 7.7046e-17
83670.54 7.6478e-17
83863.49 7.5907e-17
84056.81 7.5336e-17
84250.57 7.4764e-17
84444.76 7.419e-17
84639.42 7.3615e-17
84834.52 7.3045e-17
85030.07 7.2514e-17
85226.16 7.1982e-17
85422.62 7.1449e-17
85619.52 7.0914e-17
85816.88 7.0379e-17
86014.69 6.9842e-17
86212.96 6.9304e-17
86411.69 6.8764e-17
86610.97 6.8247e-17
86810.61 6.7749e-17
87010.72 6.725e-17
87211.29 6.675e-17
87412.31 6.6249e-17
87613.8 6.5746e-17
87815.86 6.5243e-17
88018.28 6.4738e-17
88221.16 6.4232e-17
88424.52 6.3764e-17
88628.35 6.3297e-17
88832.64 6.2829e-17
89037.4 6.236e-17
89242.75 6.1889e-17
89448.46 6.1418e-17
89654.64 6.0946e-17
89861.3 6.0472e-17
90068.43 6.0011e-17
90276.05 5.9574e-17
90484.25 5.9136e-17
90692.81 5.8697e-17
90901.87 5.8257e-17
91111.4 5.7816e-17
91321.42 5.7374e-17
91531.92 5.6931e-17
91742.91 5.6487e-17
91954.49 5.6069e-17
92166.45 5.5659e-17
92378.9 5.5248e-17
92591.84 5.4837e-17
92805.27 5.4424e-17
93019.19 5.4011e-17
93233.71 5.3596e-17
93448.62 5.318e-17
93664.02 5.2769e-17
93879.93 5.2385e-17
94096.33 5.2001e-17
94313.23 5.1616e-17
94530.63 5.123e-17
94748.63 5.0842e-17
94967.03 5.0455e-17
95185.93 5.0066e-17
95405.35 4.9676e-17
95625.26 4.9303e-17
95845.69 4.8943e-17
96066.62 4.8583e-17
96288.16 4.8221e-17
96510.12 4.7859e-17
96732.58 4.7496e-17
96955.55 4.7132e-17
97179.04 4.6768e-17
97403.04 4.6402e-17
97627.68 4.6064e-17
97852.72 4.5726e-17
98078.27 4.5388e-17
98304.35 4.5049e-17
98530.95 4.471e-17
98758.07 4.4369e-17
98985.71 4.4028e-17
99213.99 4.3686e-17
99442.68 4.3353e-17
99671.91 4.3037e-17
99901.66 4.2721e-17
100131.94 4.2404e-17
100362.75 4.2086e-17
100594.2 4.1767e-17
100826.08 4.1448e-17
101058.49 4.1128e-17
101291.44 4.0807e-17
101524.92 4.0505e-17
101758.95 4.0209e-17
101993.5 3.9912e-17
102228.72 3.9615e-17
102464.37 3.9317e-17
102700.55 3.9018e-17
102937.29 3.8718e-17
103174.56 3.8418e-17
103412.39 3.8121e-17
103650.76 3.7844e-17
103889.79 3.7566e-17
104129.27 3.7288e-17
104369.3 3.7009e-17
104609.87 3.6729e-17
104851.01 3.6449e-17
105092.69 3.6168e-17
105335.06 3.5887e-17
105577.86 3.5617e-17
105821.23 3.5357e-17
106065.15 3.5097e-17
106309.64 3.4836e-17
106554.69 3.4574e-17
106800.31 3.4312e-17
107046.61 3.4049e-17
107293.36 3.3786e-17
107540.68 3.3522e-17
107788.57 3.3277e-17
108037.02 3.3033e-17
108286.06 3.2789e-17
108535.79 3.2544e-17
108785.96 3.2299e-17
109036.73 3.2053e-17
109288.06 3.1807e-17
109539.98 3.1559e-17
109792.48 3.1319e-17
110045.56 3.1091e-17
110299.35 3.0862e-17
110553.59 3.0633e-17
110808.42 3.0403e-17
111063.85 3.0173e-17
111319.85 2.9943e-17
111576.46 2.9711e-17
111833.77 2.948e-17
112091.56 2.9261e-17
112349.94 2.9047e-17
112608.91 2.8833e-17
112868.48 2.8618e-17
113128.65 2.8403e-17
113389.42 2.8187e-17
113650.92 2.7971e-17
113912.89 2.7754e-17
114175.46 2.7539e-17
114438.65 2.7339e-17
114702.44 2.7138e-17
114966.84 2.6937e-17
115231.84 2.6736e-17
115497.59 2.6534e-17
115763.81 2.6331e-17
116030.66 2.6128e-17
116298.11 2.5925e-17
116566.19 2.573e-17
116834.89 2.5543e-17
117104.33 2.5354e-17
117374.26 2.5166e-17
117644.81 2.4977e-17
117916.0 2.4787e-17
118187.8 2.4598e-17
118460.23 2.4407e-17
118733.29 2.4216e-17
119007.11 2.404e-17
119281.43 2.3864e-17
119556.38 2.3687e-17
119831.97 2.3511e-17
120108.19 2.3333e-17
120385.05 2.3156e-17
120662.67 2.2977e-17
120940.81 2.2799e-17
121219.59 2.2625e-17
121499.01 2.246e-17
121779.07 2.2295e-17
122059.79 2.213e-17
122341.14 2.1964e-17
122623.28 2.1798e-17
122905.93 2.1631e-17
123189.24 2.1464e-17
123473.2 2.1297e-17
123757.82 2.1139e-17
124043.08 2.0984e-17
124329.15 2.0829e-17
124615.74 2.0674e-17
124902.99 2.0519e-17
125190.89 2.0363e-17
125479.47 2.0206e-17
125768.71 2.005e-17
126058.61 1.9895e-17
126349.33 1.975e-17
126640.57 1.9605e-17
126932.49 1.946e-17
127225.07 1.9314e-17
127518.33 1.9168e-17
127812.28 1.9022e-17
128106.89 1.8876e-17
128402.33 1.8729e-17
128698.31 1.8588e-17
128994.97 1.8452e-17
129292.31 1.8316e-17
129590.34 1.818e-17
129889.04 1.8044e-17
130188.6 1.7907e-17
130488.69 1.777e-17
130789.48 1.7632e-17
131090.95 1.7494e-17
131393.13 1.7367e-17
131696.0 1.724e-17
131999.56 1.7112e-17
132303.98 1.6984e-17
132608.96 1.6856e-17
132914.62 1.6728e-17
133221.01 1.6599e-17
133528.09 1.647e-17
133835.87 1.6345e-17
134144.53 1.6226e-17
134453.74 1.6106e-17
134763.66 1.5987e-17
135074.31 1.5867e-17
135385.65 1.5747e-17
135697.74 1.5627e-17
136010.53 1.5506e-17
136324.18 1.5385e-17
136638.42 1.5271e-17
136953.39 1.5159e-17
137269.07 1.5048e-17
137585.49 1.4935e-17
137902.63 1.4823e-17
138220.51 1.471e-17
138539.27 1.4597e-17
138858.61 1.4484e-17
139178.7 1.4372e-17
139499.51 1.4268e-17
139821.07 1.4163e-17
140143.37 1.4058e-17
140466.56 1.3953e-17
140790.34 1.3848e-17
141114.88 1.3742e-17
141440.16 1.3636e-17
141766.19 1.353e-17
142092.96 1.3428e-17
142420.5 1.333e-17
142748.94 1.3232e-17
143077.99 1.3134e-17
143407.8 1.3035e-17
143738.36 1.2936e-17
144069.69 1.2837e-17
144401.78 1.2738e-17
144734.8 1.2638e-17
145068.42 1.2546e-17
145402.81 1.2454e-17
145737.98 1.2362e-17
146073.92 1.227e-17
146410.63 1.2177e-17
146748.12 1.2085e-17
147086.53 1.1992e-17
147425.59 1.1898e-17
147765.41 1.1808e-17
148106.02 1.1722e-17
148447.41 1.1635e-17
148789.59 1.1549e-17
149132.73 1.1463e-17
149476.49 1.1376e-17
149821.05 1.1289e-17
150166.39 1.1202e-17
150512.53 1.1114e-17
150859.48 1.1032e-17
151207.22 1.0951e-17
151555.92 1.0871e-17
151905.27 1.079e-17
152255.43 1.0708e-17
152606.4 1.0627e-17
152958.16 1.0545e-17
153310.73 1.0464e-17
153664.13 1.0383e-17
154018.51 1.0307e-17
154373.52 1.0232e-17
154729.37 1.0156e-17
155086.03 1.008e-17
155443.52 1.0004e-17
155801.82 9.9273e-18
156161.13 9.8508e-18
156521.09 9.7741e-18
156881.88 9.7007e-18
157243.5 9.6299e-18
157605.97 9.559e-18
157969.25 9.4879e-18
158333.39 9.4166e-18
158698.53 9.3452e-18
159064.35 9.2736e-18
159431.01 9.2019e-18
159798.5 9.13e-18
160166.84 9.0634e-18
160536.04 8.997e-18
160906.26 8.9305e-18
161277.16 8.8638e-18
161648.92 8.797e-18
162021.53 8.73e-18
162395.0 8.6629e-18
162769.33 8.5956e-18
163144.53 8.53e-18
163520.77 8.4679e-18
163897.69 8.4056e-18
164275.49 8.3432e-18
164654.16 8.2807e-18
165033.69 8.218e-18
165414.12 8.1552e-18
165795.58 8.0922e-18
166177.76 8.0291e-18
166560.81 7.9696e-18
166944.75 7.9114e-18
167329.56 7.853e-18
167715.27 7.7945e-18
168101.86 7.7359e-18
168489.54 7.6771e-18
168877.92 7.6181e-18
169267.19 7.5591e-18
169657.36 7.5006e-18
170048.44 7.4461e-18
170440.42 7.3914e-18
170833.28 7.3367e-18
171227.25 7.2818e-18
171621.94 7.2268e-18
172017.56 7.1716e-18
172414.06 7.1164e-18
172811.49 7.061e-18
173209.83 7.0079e-18
173609.29 6.9568e-18
174009.46 6.9055e-18
174410.58 6.8542e-18
174812.6 6.8027e-18
175215.55 6.7511e-18
175619.44 6.6994e-18
176024.26 6.6476e-18
176430.19 6.5956e-18
176836.88 6.5475e-18
177244.51 6.4996e-18
177653.07 6.4515e-18
178062.57 6.4034e-18
178473.02 6.3551e-18
178884.61 6.3067e-18
179296.95 6.2582e-18
179710.24 6.2096e-18
180124.49 6.1622e-18
180539.68 6.1173e-18
180955.83 6.0723e-18
181372.95 6.0273e-18
181791.24 5.9821e-18
182210.27 5.9368e-18
182630.28 5.8914e-18
183051.25 5.8459e-18
183473.21 5.8004e-18
183896.12 5.7574e-18
184320.01 5.7153e-18
184745.08 5.6731e-18
185170.94 5.6309e-18
185597.76 5.5885e-18
186025.59 5.546e-18
186454.38 5.5035e-18
186884.18 5.4608e-18
187315.16 5.4185e-18
187746.94 5.3791e-18
188179.71 5.3397e-18
188613.48 5.3001e-18
189048.25 5.2605e-18
189484.01 5.2207e-18
189920.79 5.1809e-18
190358.78 5.141e-18
190797.57 5.101e-18
191237.38 5.0626e-18
191678.18 5.0257e-18
192120.01 4.9887e-18
192562.87 4.9516e-18
193006.95 4.9144e-18
193451.85 4.8771e-18
193897.77 4.8397e-18
194344.72 4.8023e-18
194792.69 4.7648e-18
195241.7 4.73e-18
195691.75 4.6954e-18
196143.04 4.6607e-18
196595.16 4.6259e-18
197048.33 4.591e-18
197502.54 4.556e-18
197957.8 4.521e-18
198414.12 4.4859e-18
198871.69 4.4516e-18
199330.1 4.4192e-18
199789.56 4.3867e-18
200250.1 4.3542e-18
200711.69 4.3216e-18
201174.35 4.2888e-18
201638.07 4.2561e-18
202103.08 4.2232e-18
202568.94 4.1903e-18
203035.88 4.1592e-18
203503.89 4.1288e-18
203972.98 4.0984e-18
204443.15 4.0678e-18
204914.42 4.0372e-18
205386.98 4.0065e-18
205860.41 3.9758e-18
206334.93 3.945e-18
206810.55 3.9144e-18
207287.25 3.886e-18
207765.07 3.8575e-18
208244.21 3.8289e-18
208724.23 3.8002e-18
209205.35 3.7715e-18
209687.58 3.7428e-18
210170.93 3.7139e-18
210655.39 3.685e-18
211140.97 3.6573e-18
211627.9 3.6306e-18
212115.72 3.6039e-18
212604.66 3.5771e-18
213094.72 3.5502e-18
213585.92 3.5233e-18
214078.25 3.4963e-18
214571.96 3.4692e-18
215066.55 3.4421e-18
215562.3 3.417e-18
216059.18 3.392e-18
216557.21 3.3669e-18
217056.4 3.3418e-18
217556.72 3.3166e-18
218058.44 3.2913e-18
218561.09 3.266e-18
219064.9 3.2407e-18
219569.84 3.2159e-18
220075.97 3.1925e-18
220583.27 3.1691e-18
221091.96 3.1455e-18
221601.59 3.1219e-18
222112.41 3.0983e-18
222624.39 3.0746e-18
223137.55 3.0509e-18
223651.9 3.0271e-18
224167.45 3.0047e-18
224684.4 2.9827e-18
225202.31 2.9607e-18
225721.42 2.9386e-18
226241.73 2.9165e-18
226763.23 2.8944e-18
227285.94 2.8722e-18
227809.85 2.8499e-18
228335.23 2.8278e-18
228861.55 2.8073e-18
229389.1 2.7867e-18
229917.85 2.766e-18
230447.82 2.7453e-18
230979.03 2.7246e-18
231511.7 2.7038e-18
232045.36 2.683e-18
232580.24 2.6621e-18
233116.35 2.6421e-18
233653.69 2.6228e-18
234192.29 2.6035e-18
234732.12 2.5841e-18
235273.44 2.5647e-18
235815.77 2.5453e-18
236359.33 2.5258e-18
236904.17 2.5062e-18
237450.25 2.4867e-18
237997.59 2.4685e-18
238546.45 2.4504e-18
239096.31 2.4323e-18
239647.45 2.4142e-18
240199.86 2.396e-18
240753.54 2.3777e-18
241308.48 2.3594e-18
241864.72 2.3411e-18
242422.5 2.3232e-18
242981.3 2.3063e-18
243541.39 2.2894e-18
244102.77 2.2724e-18
244665.44 2.2553e-18
245229.41 2.2383e-18
245794.69 2.2212e-18
246361.53 2.204e-18
246929.42 2.1868e-18
247498.6 2.1706e-18
248069.1 2.1548e-18
248640.93 2.1389e-18
249214.06 2.1229e-18
249788.78 2.1069e-18
255606.97 1.9533e-18
261560.96 1.8105e-18
267653.34 1.6783e-18
273887.93 1.5566e-18
280913.49 1.4327e-18
286795.87 1.3385e-18
293476.02 1.2409e-18
300312.13 1.1502e-18
307307.1 1.0661e-18
314465.38 9.8884e-19
321790.04 9.1702e-19
329285.65 8.503e-19
336955.51 7.8832e-19
