# col1 col2
# An Atlas of Galaxy Spectral Energy Distributions from the Ultraviolet to the Mid-Infrared
# Brown et al. (2014)
# http://dx.doi.org/10.5072/03/529D3551F0117
# 
# Column 1 : Restframe Wavelength (Angstrom)
# Column 2 : Flux per unit wavelength (ergs/s/cm^2/Angstrom)
# Column 3 : Observed wavelength (Angstrom)
# Column 4 : Source (0 = model, 1 = Optical Spectrum, 2 = Akari, 3 = Spitzer IRS)
# 
102.05 9.4615e-20
103.95 1.1667e-19
105.88 1.4688e-19
108.1 1.8835e-19
110.11 2.7731e-19
113.97 4.0734e-19
117.98 5.6488e-19
121.01 1.9905e-18
124.97 2.5939e-18
127.0 2.8838e-18
127.88 3.09e-18
130.86 3.556e-18
132.07 4.2069e-18
133.91 4.5915e-18
137.03 5.9287e-18
139.9 6.7136e-18
143.16 1.7457e-17
147.17 4.1875e-17
150.94 4.7093e-17
155.17 5.3328e-17
159.15 6.0389e-17
162.11 6.5911e-17
165.89 7.4638e-17
170.14 8.2786e-17
172.91 8.9734e-17
176.93 9.9074e-17
179.81 1.0616e-16
181.89 1.1168e-16
186.13 1.2217e-16
190.9 1.3582e-16
194.0 1.4587e-16
198.07 1.5738e-16
202.21 1.7099e-16
205.03 1.8112e-16
209.8 1.9009e-16
216.18 2.1976e-16
220.2 2.3603e-16
222.74 2.4545e-16
226.89 2.6361e-16
230.04 4.064e-16
233.78 7.0463e-16
239.78 8.9117e-16
245.93 8.749e-16
252.24 9.4833e-16
256.93 8.165e-16
259.9 9.527e-16
264.12 1.0138e-15
269.03 1.0303e-15
274.04 1.0446e-15
279.13 1.0592e-15
284.32 1.0764e-15
290.27 1.0446e-15
295.67 1.0788e-15
301.17 1.0764e-15
308.18 1.1065e-15
318.28 1.148e-15
327.95 1.1667e-15
337.92 1.1721e-15
348.18 1.1748e-15
357.11 1.1802e-15
366.28 1.1884e-15
374.81 1.1857e-15
385.31 1.148e-15
395.19 1.1775e-15
405.33 1.1775e-15
413.82 1.1667e-15
422.48 1.1533e-15
430.34 1.1401e-15
441.38 1.1349e-15
450.62 1.1142e-15
460.05 1.0989e-15
469.69 1.0838e-15
479.52 1.0739e-15
489.56 1.047e-15
499.81 1.0422e-15
505.6 1.0256e-15
511.46 1.0543e-15
519.77 1.0422e-15
529.43 1.0185e-15
540.52 9.8392e-16
550.56 9.6818e-16
559.51 9.7265e-16
569.91 9.7042e-16
580.51 9.4397e-16
589.94 9.3963e-16
599.53 9.0773e-16
610.67 8.1839e-16
620.59 9.0356e-16
630.68 8.83e-16
639.45 8.7692e-16
649.84 8.6489e-16
657.37 8.4715e-16
664.98 8.5106e-16
674.23 8.4131e-16
685.19 8.0716e-16
694.72 8.2596e-16
704.38 7.8878e-16
715.83 8.1088e-16
725.78 8.016e-16
734.19 7.9425e-16
744.4 7.906e-16
754.76 7.8335e-16
765.26 7.3107e-16
774.12 7.7439e-16
784.89 7.6376e-16
795.81 7.6552e-16
805.02 7.6376e-16
814.34 7.585e-16
825.67 7.6376e-16
835.23 6.9496e-16
844.91 7.4982e-16
854.69 7.4295e-16
864.59 7.4982e-16
874.6 7.5676e-16
884.72 7.6552e-16
894.97 7.7083e-16
905.33 7.585e-16
915.82 9.794e-16
924.29 3.7407e-15
934.99 7.6025e-15
945.82 1.4027e-14
954.57 1.9542e-14
965.62 2.218e-14
974.56 4.2654e-15
985.84 1.9273e-14
994.97 2.0135e-14
1004.17 2.8705e-14
1015.8 2.735e-14
1025.2 1.1694e-14
1034.68 1.9318e-14
1044.26 3.6388e-14
1053.92 3.5724e-14
1066.12 2.8442e-14
1075.99 3.3648e-14
1085.95 2.6605e-14
1095.99 3.5072e-14
1106.13 3.3648e-14
1113.8 3.2356e-14
1124.11 2.9171e-14
1134.51 3.664e-14
1145.01 3.3263e-14
1155.6 3.5234e-14
1166.29 3.6304e-14
1174.38 2.5466e-14
1185.24 3.4991e-14
1196.21 2.4041e-14
1204.5 1.7376e-14
1215.65 1.1142e-14
1224.07 2.3225e-14
1235.4 3.5234e-14
1243.96 3.8811e-14
1255.48 3.715e-14
1264.18 3.1766e-14
1275.87 4.1016e-14
1284.72 4.2949e-14
1293.62 3.4116e-14
1305.59 3.3493e-14
1314.64 4.1779e-14
1323.76 3.9899e-14
1336.0 3.5315e-14
1345.27 4.1875e-14
1354.59 4.0454e-14
1363.98 3.6138e-14
1373.44 3.7928e-14
1386.14 3.8279e-14
1395.75 3.3493e-14
1405.43 3.475e-14
1415.17 3.5315e-14
1424.98 3.6138e-14
1434.85 3.5806e-14
1441.48 3.7754e-14
1448.13 3.8367e-14
1454.82 3.7236e-14
1464.9 3.4273e-14
1475.05 3.4116e-14
1485.28 3.467e-14
1495.57 3.5234e-14
1505.94 3.3339e-14
1512.89 2.9645e-14
1516.38 3.1693e-14
1523.38 3.0687e-14
1533.94 2.6727e-14
1544.57 2.9441e-14
1555.28 2.7731e-14
1566.06 2.8052e-14
1573.29 2.9851e-14
1584.19 3.1258e-14
1595.17 3.1912e-14
1606.23 3.1114e-14
1613.65 3.1186e-14
1624.83 2.9374e-14
1636.09 3.1186e-14
1643.64 3.162e-14
1655.04 2.9037e-14
1666.51 3.1766e-14
1670.35 2.8246e-14
1678.06 3.1912e-14
1685.81 3.3263e-14
1693.59 3.1114e-14
1705.33 2.9851e-14
1713.2 2.8442e-14
1725.08 2.8246e-14
1733.04 3.0058e-14
1745.05 2.9306e-14
1753.11 3.1258e-14
1765.26 2.8442e-14
1773.4 2.9306e-14
1785.7 2.9714e-14
1793.94 3.1839e-14
1806.38 3.1402e-14
1814.71 2.9104e-14
1823.09 2.9577e-14
1835.73 2.8311e-14
1844.2 2.5939e-14
1856.98 2.6179e-14
1865.55 2.7099e-14
1874.17 2.9104e-14
1887.16 2.6913e-14
1895.87 2.5999e-14
1904.62 2.7287e-14
1913.41 2.6422e-14
1926.67 2.5761e-14
1935.57 2.5939e-14
1944.5 2.7731e-14
1953.48 2.6119e-14
1967.02 2.8573e-14
1976.1 2.9037e-14
1985.22 2.7794e-14
1994.38 2.7037e-14
2003.59 2.7476e-14
2012.83 2.6666e-14
2026.79 2.7413e-14
2036.14 2.6605e-14
2045.54 2.7731e-14
2054.98 2.6482e-14
2064.47 2.6422e-14
2074.0 2.8376e-14
2078.78 2.9171e-14
2083.57 3.09e-14
2093.19 2.9037e-14
2102.85 2.8838e-14
2117.43 2.9577e-14
2127.2 2.9374e-14
2137.02 2.7162e-14
2146.88 2.9037e-14
2156.79 2.9851e-14
2166.75 2.8246e-14
2176.75 2.8116e-14
2186.79 2.9037e-14
2196.89 3.0058e-14
2207.03 2.9104e-14
2217.22 2.6544e-14
2227.45 2.6544e-14
2232.59 2.992e-14
2242.89 2.8442e-14
2253.24 2.588e-14
2263.64 2.5939e-14
2274.09 2.7099e-14
2284.59 2.9509e-14
2295.13 2.6983e-14
2305.73 2.8398e-14
2316.37 2.6272e-14
2327.06 2.0782e-14
2332.43 2.2898e-14
2343.19 2.0749e-14
2354.01 2.5131e-14
2364.87 2.0961e-14
2375.79 2.2679e-14
2386.76 1.9401e-14
2392.26 2.1229e-14
2403.3 2.0518e-14
2414.39 2.1545e-14
2425.54 2.5678e-14
2436.73 2.5048e-14
2442.35 2.7472e-14
2453.62 2.774e-14
2464.95 2.6261e-14
2476.33 2.4634e-14
2487.76 2.2477e-14
2493.49 2.2431e-14
2505.0 2.7484e-14
2510.78 2.0473e-14
2516.56 2.0012e-14
2522.37 1.9652e-14
2534.01 2.1959e-14
2545.7 2.2123e-14
2557.46 2.8188e-14
2563.35 2.4841e-14
2575.18 2.808e-14
2587.07 2.6645e-14
2593.03 2.5394e-14
2605.0 2.3657e-14
2617.03 2.2656e-14
2623.06 2.596e-14
2635.17 3.3077e-14
2647.33 4.0249e-14
2653.43 4.8626e-14
2665.68 3.6066e-14
2677.98 3.9567e-14
2684.16 4.28e-14
2696.55 3.5455e-14
2702.76 4.0253e-14
2715.24 3.3115e-14
2727.77 3.0079e-14
2734.06 3.4386e-14
2746.68 2.4413e-14
2753.01 2.8167e-14
2765.72 3.2732e-14
2772.09 3.4761e-14
2784.89 2.6505e-14
2797.74 1.7481e-14
2804.19 1.944e-14
2817.14 3.2579e-14
2823.63 4.112e-14
2836.66 3.9564e-14
2843.2 3.3375e-14
2856.33 2.5684e-14
2862.91 4.0624e-14
2876.13 4.8088e-14
2882.76 4.4891e-14
2896.06 5.0513e-14
2909.43 6.3629e-14
2929.6 5.7151e-14
2949.9 5.425e-14
2970.35 5.6857e-14
2990.94 5.7566e-14
3011.67 5.8418e-14
3032.55 6.0804e-14
3046.55 6.2834e-14
3067.67 6.6617e-14
3088.93 6.6218e-14
3110.34 7.3008e-14
3131.9 6.9146e-14
3153.61 6.9209e-14
3168.17 7.4205e-14
3190.13 6.5893e-14
3212.24 7.2151e-14
3227.07 6.2736e-14
3249.44 8.1832e-14
3271.96 9.3183e-14
3287.06 9.154e-14
3309.85 8.7706e-14
3325.12 8.4588e-14
3332.79 8.6387e-14
3340.47 7.9724e-14
3348.17 9.7214e-14
3355.89 9.3297e-14
3363.63 6.5014e-14
3371.38 7.3139e-14
3379.15 9.3388e-14
3386.94 8.9214e-14
3394.75 8.6811e-14
3402.58 1.0416e-13
3410.42 8.6072e-14
3418.28 8.1097e-14
3426.16 9.0396e-14
3434.06 1.0076e-13
3441.98 7.9147e-14
3449.91 8.2524e-14
3457.86 9.1775e-14
3465.84 8.2389e-14
3473.83 9.7727e-14
3481.83 8.6728e-14
3489.86 9.469e-14
3497.91 8.5595e-14
3505.97 1.0271e-13
3514.05 8.8459e-14
3522.15 1.0067e-13
3530.27 8.4535e-14
3538.41 1.0237e-13
3546.57 1.0503e-13
3554.74 1.0411e-13
3562.94 9.7415e-14
3571.15 8.1054e-14
3579.38 8.9315e-14
3587.63 6.9195e-14
3595.9 9.4021e-14
3604.19 1.0577e-13
3612.5 8.1194e-14
3620.8 8.8468e-14
3623.54 8.4603e-14
3626.27 8.9285e-14
3629.01 1.0229e-13
3631.74 9.9313e-14
3634.48 1.0024e-13
3637.22 1.0619e-13
3639.95 1.0107e-13
3642.69 1.0572e-13
3645.42 9.3762e-14
3648.16 9.5784e-14
3650.9 9.8911e-14
3653.63 1.1378e-13
3656.37 1.1565e-13
3659.11 1.2329e-13
3661.84 1.2289e-13
3664.58 1.2059e-13
3667.31 1.1952e-13
3670.05 1.1967e-13
3672.79 1.1456e-13
3675.52 1.0878e-13
3678.26 1.1828e-13
3680.99 1.0486e-13
3683.73 1.0164e-13
3686.47 1.0098e-13
3689.2 1.0177e-13
3691.94 1.0531e-13
3694.68 1.1562e-13
3697.41 1.1942e-13
3700.15 1.1947e-13
3702.88 1.1323e-13
3705.62 1.0705e-13
3708.36 1.0293e-13
3711.09 1.1227e-13
3713.83 1.0884e-13
3716.56 1.1529e-13
3719.3 1.2657e-13
3722.04 1.3986e-13
3724.77 1.5919e-13
3727.51 1.8267e-13
3730.25 1.698e-13
3732.98 1.3289e-13
3735.72 1.1365e-13
3738.45 9.7063e-14
3741.19 1.076e-13
3743.93 9.522e-14
3746.66 9.3775e-14
3749.4 9.2826e-14
3752.13 9.5798e-14
3754.87 1.0883e-13
3757.61 1.1156e-13
3760.34 1.0908e-13
3763.08 1.0452e-13
3765.82 1.0404e-13
3768.55 1.0764e-13
3771.29 1.0692e-13
3774.02 1.1897e-13
3776.76 1.2787e-13
3779.5 1.3305e-13
3782.23 1.3872e-13
3784.97 1.2762e-13
3787.7 1.2303e-13
3790.44 1.1495e-13
3793.18 1.0716e-13
3795.91 1.0403e-13
3798.65 1.0307e-13
3801.39 1.1111e-13
3804.12 1.1305e-13
3806.86 1.2269e-13
3809.59 1.1986e-13
3812.33 1.1513e-13
3815.07 1.1411e-13
3817.8 1.0103e-13
3820.54 9.5069e-14
3823.27 9.2235e-14
3826.01 8.9724e-14
3828.75 8.3974e-14
3831.48 7.4915e-14
3834.22 7.5404e-14
3836.96 7.9727e-14
3839.69 8.2067e-14
3842.43 9.6698e-14
3845.16 1.0379e-13
3847.9 1.08e-13
3850.64 1.1081e-13
3853.37 1.1037e-13
3856.11 1.0732e-13
3858.84 1.0503e-13
3861.58 1.1144e-13
3864.32 1.1846e-13
3867.05 1.1867e-13
3869.79 1.1683e-13
3872.53 1.1331e-13
3875.26 1.0892e-13
3878.0 1.0677e-13
3880.73 1.0773e-13
3883.47 1.0501e-13
3886.21 1.0649e-13
3888.94 1.0825e-13
3891.68 1.1421e-13
3894.41 1.1991e-13
3897.15 1.2199e-13
3899.89 1.2683e-13
3902.62 1.2766e-13
3905.36 1.3035e-13
3908.1 1.3609e-13
3910.83 1.3784e-13
3913.57 1.4159e-13
3916.3 1.3862e-13
3919.04 1.3187e-13
3921.78 1.214e-13
3924.51 1.135e-13
3927.25 9.8183e-14
3929.98 8.1906e-14
3932.72 7.525e-14
3935.46 7.2127e-14
3938.19 8.0327e-14
3940.93 9.3742e-14
3943.67 1.1097e-13
3946.4 1.2083e-13
3949.14 1.329e-13
3951.87 1.3654e-13
3954.61 1.3862e-13
3957.35 1.2811e-13
3960.08 1.2114e-13
3962.82 1.0222e-13
3965.55 8.0076e-14
3968.29 7.2439e-14
3971.03 7.6774e-14
3973.76 9.1122e-14
3976.5 1.1357e-13
3979.24 1.3321e-13
3981.97 1.444e-13
3984.71 1.5407e-13
3987.44 1.584e-13
3990.18 1.6402e-13
3992.92 1.6589e-13
3995.65 1.6993e-13
3998.39 1.7177e-13
4001.12 1.7424e-13
4003.86 1.7389e-13
4006.6 1.7672e-13
4009.33 1.7792e-13
4012.07 1.8359e-13
4014.81 1.8853e-13
4017.54 1.8951e-13
4020.28 1.8865e-13
4023.01 1.8651e-13
4025.75 1.8823e-13
4028.49 1.8499e-13
4031.22 1.7627e-13
4033.96 1.7343e-13
4036.69 1.7917e-13
4039.43 1.8074e-13
4042.17 1.8021e-13
4044.9 1.7626e-13
4047.64 1.7622e-13
4050.38 1.7755e-13
4053.11 1.7952e-13
4055.85 1.7888e-13
4058.58 1.7271e-13
4061.32 1.7139e-13
4064.06 1.6984e-13
4066.79 1.7193e-13
4069.53 1.7587e-13
4072.26 1.7577e-13
4075.0 1.7364e-13
4077.74 1.7312e-13
4080.47 1.7701e-13
4083.21 1.8169e-13
4085.95 1.8794e-13
4088.68 1.9297e-13
4091.42 1.9157e-13
4094.15 1.8323e-13
4096.89 1.7443e-13
4099.63 1.6467e-13
4102.36 1.6328e-13
4105.1 1.6708e-13
4107.83 1.7171e-13
4110.57 1.7905e-13
4113.31 1.8543e-13
4116.04 1.8393e-13
4118.78 1.851e-13
4121.52 1.8569e-13
4124.25 1.8376e-13
4126.99 1.8407e-13
4129.72 1.7917e-13
4132.46 1.7747e-13
4135.2 1.8108e-13
4137.93 1.8404e-13
4140.67 1.8393e-13
4143.4 1.8071e-13
4146.14 1.7984e-13
4148.88 1.7595e-13
4151.61 1.777e-13
4154.35 1.8046e-13
4157.09 1.7967e-13
4159.82 1.7997e-13
4162.56 1.8415e-13
4165.29 1.8477e-13
4168.03 1.7891e-13
4170.77 1.7431e-13
4173.5 1.6866e-13
4176.24 1.7061e-13
4178.97 1.7419e-13
4181.71 1.7319e-13
4184.45 1.7906e-13
4187.18 1.8144e-13
4189.92 1.7823e-13
4192.66 1.8056e-13
4195.39 1.7925e-13
4198.13 1.75e-13
4200.86 1.7068e-13
4203.6 1.7786e-13
4206.34 1.8401e-13
4209.07 1.9059e-13
4211.81 1.9007e-13
4214.54 1.8929e-13
4217.28 1.9001e-13
4220.02 1.865e-13
4222.75 1.8057e-13
4225.49 1.7113e-13
4228.23 1.6709e-13
4230.96 1.7516e-13
4233.7 1.8204e-13
4236.43 1.8789e-13
4239.17 1.9036e-13
4241.91 1.9141e-13
4244.64 1.9475e-13
4247.38 1.9082e-13
4250.11 1.8646e-13
4252.85 1.852e-13
4255.59 1.8928e-13
4258.32 1.8802e-13
4261.06 1.9022e-13
4263.8 1.9195e-13
4266.53 1.9379e-13
4269.27 1.8618e-13
4272.0 1.7796e-13
4274.74 1.8013e-13
4277.48 1.8395e-13
4280.21 1.8755e-13
4282.95 1.8849e-13
4285.68 1.8453e-13
4288.42 1.7745e-13
4291.16 1.7313e-13
4293.89 1.7357e-13
4296.63 1.665e-13
4299.37 1.5702e-13
4302.1 1.4888e-13
4304.84 1.4309e-13
4307.57 1.4212e-13
4310.31 1.5348e-13
4313.05 1.6878e-13
4315.78 1.8742e-13
4318.52 2.0358e-13
4321.25 2.0101e-13
4323.99 1.94e-13
4326.73 1.8723e-13
4329.46 1.967e-13
4332.2 2.0433e-13
4334.94 2.0876e-13
4337.67 1.9513e-13
4340.41 1.8855e-13
4343.14 1.9055e-13
4345.88 1.977e-13
4348.62 2.0087e-13
4351.35 2.0664e-13
4354.09 2.0378e-13
4356.82 2.0999e-13
4359.56 2.156e-13
4362.3 2.2146e-13
4365.03 2.2308e-13
4367.77 2.2205e-13
4370.51 2.1648e-13
4373.24 2.1132e-13
4375.98 2.0688e-13
4378.71 2.0697e-13
4381.45 1.9403e-13
4384.19 1.8888e-13
4386.92 1.9057e-13
4389.66 1.948e-13
4392.39 2.0187e-13
4395.13 2.0856e-13
4397.87 2.0679e-13
4400.6 2.057e-13
4403.34 2.0391e-13
4406.08 2.0245e-13
4408.81 2.0541e-13
4411.55 2.1025e-13
4414.28 2.124e-13
4417.02 2.1965e-13
4419.76 2.1858e-13
4422.49 2.2085e-13
4425.23 2.2073e-13
4427.96 2.2002e-13
4430.7 2.1877e-13
4433.44 2.1864e-13
4436.17 2.2296e-13
4438.91 2.2129e-13
4441.65 2.2787e-13
4444.38 2.2934e-13
4447.12 2.3086e-13
4449.85 2.3322e-13
4452.59 2.3215e-13
4455.33 2.1763e-13
4458.06 2.1152e-13
4460.8 2.1311e-13
4463.53 2.1562e-13
4466.27 2.211e-13
4469.01 2.261e-13
4471.74 2.3056e-13
4474.48 2.4128e-13
4477.22 2.428e-13
4479.95 2.4188e-13
4482.69 2.3882e-13
4485.42 2.3867e-13
4488.16 2.4192e-13
4490.9 2.382e-13
4493.63 2.355e-13
4496.37 2.3674e-13
4499.1 2.4236e-13
4501.84 2.4831e-13
4504.58 2.5623e-13
4507.31 2.5966e-13
4510.05 2.5651e-13
4512.79 2.5336e-13
4515.52 2.4925e-13
4518.26 2.4784e-13
4520.99 2.4534e-13
4523.73 2.3687e-13
4526.47 2.328e-13
4529.2 2.2374e-13
4531.94 2.2155e-13
4534.67 2.2648e-13
4537.41 2.3413e-13
4540.15 2.3753e-13
4542.88 2.3918e-13
4545.62 2.3802e-13
4548.36 2.3893e-13
4551.09 2.3975e-13
4553.83 2.4121e-13
4556.56 2.4634e-13
4559.3 2.525e-13
4562.04 2.5397e-13
4564.77 2.5362e-13
4567.51 2.548e-13
4570.24 2.5203e-13
4572.98 2.5202e-13
4575.72 2.5156e-13
4578.45 2.4687e-13
4581.19 2.4573e-13
4583.93 2.4302e-13
4586.66 2.4793e-13
4589.4 2.4906e-13
4592.13 2.472e-13
4594.87 2.4444e-13
4597.61 2.443e-13
4600.34 2.46e-13
4603.08 2.4751e-13
4605.81 2.514e-13
4608.55 2.5724e-13
4611.29 2.6019e-13
4614.02 2.6194e-13
4616.76 2.6169e-13
4619.5 2.6065e-13
4622.23 2.6084e-13
4624.97 2.6143e-13
4627.7 2.6317e-13
4630.44 2.6334e-13
4633.18 2.5838e-13
4635.91 2.522e-13
4638.65 2.4843e-13
4641.38 2.4552e-13
4644.12 2.4256e-13
4646.86 2.3919e-13
4649.59 2.4115e-13
4652.33 2.4124e-13
4655.07 2.4598e-13
4657.8 2.4961e-13
4660.54 2.4773e-13
4663.27 2.4799e-13
4666.01 2.4104e-13
4668.75 2.3398e-13
4671.48 2.3653e-13
4674.22 2.4045e-13
4676.95 2.4303e-13
4679.69 2.4392e-13
4682.43 2.446e-13
4685.16 2.4578e-13
4687.9 2.4526e-13
4690.64 2.4455e-13
4693.37 2.4428e-13
4696.11 2.4213e-13
4698.84 2.4027e-13
4701.58 2.3656e-13
4704.32 2.3501e-13
4707.05 2.3763e-13
4709.79 2.4026e-13
4712.52 2.4296e-13
4715.26 2.4731e-13
4718.0 2.5228e-13
4720.73 2.5639e-13
4723.47 2.5625e-13
4726.21 2.5207e-13
4728.94 2.4706e-13
4731.68 2.4342e-13
4734.41 2.4445e-13
4737.15 2.4714e-13
4739.89 2.5239e-13
4742.62 2.5658e-13
4745.36 2.5741e-13
4748.09 2.5825e-13
4750.83 2.5844e-13
4753.57 2.5784e-13
4756.3 2.5546e-13
4759.04 2.5208e-13
4761.78 2.4733e-13
4764.51 2.4549e-13
4767.25 2.4711e-13
4769.98 2.4864e-13
4772.72 2.5525e-13
4775.46 2.5991e-13
4778.19 2.6182e-13
4780.93 2.6093e-13
4783.66 2.565e-13
4786.4 2.5579e-13
4789.14 2.5425e-13
4791.87 2.5823e-13
4794.61 2.6281e-13
4797.35 2.6106e-13
4800.08 2.6418e-13
4802.82 2.6606e-13
4805.55 2.6458e-13
4808.29 2.6389e-13
4811.03 2.653e-13
4813.76 2.6716e-13
4816.5 2.683e-13
4819.23 2.7238e-13
4821.97 2.7187e-13
4824.71 2.6547e-13
4827.44 2.6318e-13
4830.18 2.6407e-13
4832.92 2.6249e-13
4835.65 2.5977e-13
4838.39 2.5893e-13
4841.12 2.5919e-13
4843.86 2.575e-13
4846.6 2.5537e-13
4849.33 2.5372e-13
4852.07 2.5092e-13
4854.8 2.4889e-13
4857.54 2.4304e-13
4860.28 2.3786e-13
4863.01 2.351e-13
4865.75 2.3301e-13
4868.49 2.3507e-13
4871.22 2.3594e-13
4873.96 2.3903e-13
4876.69 2.4256e-13
4879.43 2.4837e-13
4882.17 2.5174e-13
4884.9 2.4851e-13
4887.64 2.4641e-13
4890.37 2.4613e-13
4893.11 2.5098e-13
4895.85 2.5849e-13
4898.58 2.6372e-13
4901.32 2.6452e-13
4904.06 2.6285e-13
4906.79 2.6077e-13
4909.53 2.5895e-13
4912.26 2.5866e-13
4915.0 2.5562e-13
4917.74 2.4545e-13
4920.47 2.3965e-13
4923.21 2.4348e-13
4925.94 2.5102e-13
4928.68 2.5806e-13
4931.42 2.6231e-13
4934.15 2.6072e-13
4936.89 2.566e-13
4939.63 2.5571e-13
4942.36 2.6079e-13
4945.1 2.6684e-13
4947.83 2.7111e-13
4950.57 2.7168e-13
4953.31 2.6871e-13
4956.04 2.657e-13
4958.78 2.6316e-13
4961.51 2.6366e-13
4964.25 2.6323e-13
4966.99 2.5774e-13
4969.72 2.5835e-13
4972.46 2.5859e-13
4975.2 2.5658e-13
4977.93 2.5318e-13
4980.67 2.4748e-13
4983.4 2.4157e-13
4986.14 2.4423e-13
4988.88 2.4976e-13
4991.61 2.5193e-13
4994.35 2.5458e-13
4997.08 2.5586e-13
4999.82 2.5751e-13
5002.56 2.5813e-13
5005.29 2.5993e-13
5008.03 2.597e-13
5010.77 2.5309e-13
5013.5 2.463e-13
5016.24 2.3692e-13
5018.97 2.369e-13
5021.71 2.3902e-13
5024.45 2.4129e-13
5027.18 2.4319e-13
5029.92 2.4715e-13
5032.65 2.5049e-13
5035.39 2.475e-13
5038.13 2.436e-13
5040.86 2.3916e-13
5043.6 2.4166e-13
5046.34 2.4627e-13
5049.07 2.5176e-13
5051.81 2.5261e-13
5054.54 2.5398e-13
5057.28 2.5776e-13
5060.02 2.5862e-13
5062.75 2.5827e-13
5065.49 2.553e-13
5068.22 2.5146e-13
5070.96 2.4822e-13
5073.7 2.4521e-13
5076.43 2.441e-13
5079.17 2.4046e-13
5081.91 2.3646e-13
5084.64 2.394e-13
5087.38 2.4608e-13
5090.11 2.5104e-13
5092.85 2.5144e-13
5095.59 2.4921e-13
5098.32 2.49e-13
5101.06 2.4484e-13
5103.79 2.409e-13
5106.53 2.4341e-13
5109.27 2.4153e-13
5112.0 2.4516e-13
5114.74 2.4821e-13
5117.48 2.5122e-13
5120.21 2.4811e-13
5122.95 2.4079e-13
5125.68 2.3729e-13
5128.42 2.3729e-13
5131.16 2.369e-13
5133.89 2.406e-13
5136.63 2.3769e-13
5139.36 2.4105e-13
5142.1 2.3434e-13
5144.84 2.3109e-13
5147.57 2.3235e-13
5150.31 2.3216e-13
5153.05 2.3629e-13
5155.78 2.4058e-13
5158.52 2.4196e-13
5161.25 2.3845e-13
5163.99 2.2565e-13
5166.73 2.1272e-13
5169.46 1.9985e-13
5172.2 1.9435e-13
5174.93 2.0048e-13
5177.67 2.0962e-13
5180.41 2.1102e-13
5183.14 2.1089e-13
5185.88 2.1136e-13
5188.62 2.1771e-13
5191.35 2.3052e-13
5194.09 2.3763e-13
5196.82 2.4201e-13
5199.56 2.4207e-13
5202.3 2.4358e-13
5205.03 2.3705e-13
5207.77 2.3049e-13
5210.5 2.3192e-13
5213.24 2.3627e-13
5215.98 2.4412e-13
5218.71 2.4651e-13
5221.45 2.4691e-13
5224.19 2.4442e-13
5226.92 2.4296e-13
5229.66 2.4454e-13
5232.39 2.4696e-13
5235.13 2.5107e-13
5237.87 2.5818e-13
5240.6 2.6081e-13
5243.34 2.6175e-13
5246.07 2.5911e-13
5248.81 2.54e-13
5251.55 2.5196e-13
5254.28 2.5364e-13
5257.02 2.5359e-13
5259.76 2.5093e-13
5262.49 2.4339e-13
5265.23 2.2944e-13
5267.96 2.2525e-13
5270.7 2.2939e-13
5273.44 2.3694e-13
5276.17 2.5048e-13
5278.91 2.5688e-13
5281.64 2.6349e-13
5284.38 2.6746e-13
5287.12 2.7097e-13
5289.85 2.773e-13
5292.59 2.7461e-13
5295.33 2.7193e-13
5298.06 2.6989e-13
5300.8 2.6875e-13
5303.53 2.7096e-13
5306.27 2.7724e-13
5309.01 2.8343e-13
5311.74 2.8579e-13
5314.48 2.831e-13
5317.22 2.7991e-13
5319.95 2.7372e-13
5322.69 2.6968e-13
5325.42 2.6138e-13
5328.16 2.5659e-13
5330.9 2.5729e-13
5333.63 2.6502e-13
5336.37 2.6992e-13
5339.1 2.6995e-13
5341.84 2.6745e-13
5344.58 2.6734e-13
5347.31 2.7116e-13
5350.05 2.7533e-13
5352.79 2.8116e-13
5355.52 2.8761e-13
5358.26 2.8874e-13
5360.99 2.8504e-13
5363.73 2.8081e-13
5366.47 2.7444e-13
5369.2 2.6874e-13
5371.94 2.6549e-13
5374.67 2.6794e-13
5377.41 2.7359e-13
5380.15 2.774e-13
5382.88 2.7733e-13
5385.62 2.7603e-13
5388.36 2.7244e-13
5391.09 2.6889e-13
5393.83 2.6276e-13
5396.56 2.604e-13
5399.3 2.566e-13
5402.04 2.5472e-13
5404.77 2.5561e-13
5407.51 2.5482e-13
5410.24 2.5898e-13
5412.98 2.6528e-13
5415.72 2.695e-13
5418.45 2.7053e-13
5421.19 2.725e-13
5423.93 2.7168e-13
5426.66 2.6892e-13
5429.4 2.6871e-13
5432.13 2.6621e-13
5434.87 2.6599e-13
5437.61 2.7049e-13
5440.34 2.745e-13
5443.08 2.7633e-13
5445.81 2.726e-13
5448.55 2.7034e-13
5451.29 2.6915e-13
5454.02 2.6918e-13
5456.76 2.658e-13
5459.5 2.6635e-13
5462.23 2.6816e-13
5464.97 2.6979e-13
5467.7 2.7135e-13
5470.44 2.6987e-13
5473.18 2.666e-13
5475.91 2.6347e-13
5478.65 2.6256e-13
5481.38 2.6478e-13
5484.12 2.6595e-13
5486.86 2.6816e-13
5489.59 2.7184e-13
5492.33 2.7243e-13
5495.07 2.71e-13
5497.8 2.723e-13
5500.54 2.7274e-13
5503.27 2.6944e-13
5506.01 2.6699e-13
5508.75 2.6629e-13
5511.48 2.6516e-13
5514.22 2.6704e-13
5516.95 2.6981e-13
5519.69 2.7098e-13
5522.43 2.7248e-13
5525.16 2.6969e-13
5527.9 2.643e-13
5530.64 2.6918e-13
5533.37 2.6839e-13
5536.11 2.7124e-13
5538.84 2.7118e-13
5541.58 2.794e-13
5544.32 2.7485e-13
5547.05 2.8053e-13
5549.79 2.7388e-13
5552.52 2.7744e-13
5555.26 2.7525e-13
5558.0 2.7636e-13
5560.73 2.7026e-13
5563.47 2.7199e-13
5566.21 2.7184e-13
5568.94 2.7245e-13
5571.68 2.6468e-13
5574.41 2.689e-13
5577.15 2.6898e-13
5579.89 2.6953e-13
5582.62 2.6878e-13
5585.36 2.6458e-13
5588.09 2.62e-13
5590.83 2.6137e-13
5593.57 2.6343e-13
5596.3 2.655e-13
5599.04 2.6599e-13
5601.78 2.6396e-13
5604.51 2.6779e-13
5607.25 2.7451e-13
5609.98 2.7563e-13
5612.72 2.7495e-13
5615.46 2.7163e-13
5618.19 2.6683e-13
5620.93 2.6677e-13
5623.66 2.6737e-13
5626.4 2.6936e-13
5629.14 2.7314e-13
5631.87 2.7537e-13
5634.61 2.7321e-13
5637.35 2.722e-13
5640.08 2.6999e-13
5642.82 2.716e-13
5645.55 2.7417e-13
5648.29 2.7533e-13
5651.03 2.7241e-13
5653.76 2.7301e-13
5656.5 2.7064e-13
5659.23 2.6443e-13
5661.97 2.6443e-13
5664.71 2.6659e-13
5667.44 2.7112e-13
5670.18 2.7453e-13
5672.92 2.7839e-13
5675.65 2.8195e-13
5678.39 2.7923e-13
5681.12 2.7822e-13
5683.86 2.7556e-13
5686.6 2.7577e-13
5689.33 2.7258e-13
5692.07 2.7589e-13
5694.8 2.7761e-13
5697.54 2.7952e-13
5700.28 2.757e-13
5703.01 2.6801e-13
5705.75 2.6645e-13
5708.49 2.6469e-13
5711.22 2.6659e-13
5713.96 2.709e-13
5716.69 2.7379e-13
5719.43 2.8244e-13
5722.17 2.8432e-13
5724.9 2.8547e-13
5727.64 2.8398e-13
5730.37 2.8427e-13
5733.11 2.8259e-13
5735.85 2.8301e-13
5738.58 2.8543e-13
5741.32 2.8469e-13
5744.06 2.8419e-13
5746.79 2.8386e-13
5749.53 2.8164e-13
5752.26 2.7812e-13
5755.0 2.7938e-13
5757.74 2.7787e-13
5760.47 2.7902e-13
5763.21 2.7883e-13
5765.94 2.8163e-13
5768.68 2.8308e-13
5771.42 2.8319e-13
5774.15 2.8097e-13
5776.89 2.7898e-13
5779.63 2.7496e-13
5782.36 2.7087e-13
5785.1 2.6824e-13
5787.83 2.7062e-13
5790.57 2.7479e-13
5793.31 2.8051e-13
5796.04 2.8202e-13
5798.78 2.8591e-13
5801.51 2.893e-13
5804.25 2.866e-13
5806.99 2.8211e-13
5809.72 2.8604e-13
5812.46 2.8449e-13
5815.2 2.8534e-13
5817.93 2.848e-13
5820.67 2.8564e-13
5823.4 2.9017e-13
5826.14 2.8858e-13
5828.88 2.8844e-13
5831.61 2.9288e-13
5834.35 2.8897e-13
5837.08 2.8833e-13
5839.82 2.8971e-13
5842.56 2.9338e-13
5845.29 2.8958e-13
5848.03 2.8685e-13
5850.77 2.8143e-13
5853.5 2.7315e-13
5856.24 2.7321e-13
5858.97 2.6975e-13
5861.71 2.6929e-13
5864.45 2.6545e-13
5867.18 2.663e-13
5869.92 2.7323e-13
5872.65 2.7561e-13
5875.39 2.7813e-13
5878.13 2.7892e-13
5880.86 2.6983e-13
5883.6 2.6621e-13
5886.34 2.5795e-13
5889.07 2.4735e-13
5891.81 2.3811e-13
5894.54 2.3714e-13
5897.28 2.4471e-13
5900.02 2.5553e-13
5902.75 2.6435e-13
5905.49 2.6793e-13
5908.22 2.7077e-13
5910.96 2.7417e-13
5913.7 2.7346e-13
5916.43 2.7401e-13
5919.17 2.7458e-13
5921.91 2.7322e-13
5924.64 2.7443e-13
5927.38 2.7502e-13
5930.11 2.7203e-13
5932.85 2.7254e-13
5935.59 2.7402e-13
5938.32 2.7666e-13
5941.06 2.7872e-13
5943.79 2.7749e-13
5946.53 2.7372e-13
5949.27 2.7337e-13
5952.0 2.7124e-13
5954.74 2.7075e-13
5957.48 2.7193e-13
5960.21 2.7444e-13
5962.95 2.7821e-13
5965.68 2.8133e-13
5968.42 2.8332e-13
5971.16 2.825e-13
5973.89 2.8147e-13
5976.63 2.7762e-13
5979.36 2.7433e-13
5982.1 2.7325e-13
5984.84 2.7257e-13
5987.57 2.7282e-13
5990.31 2.7435e-13
5993.05 2.7419e-13
5995.78 2.7489e-13
5998.52 2.7473e-13
6001.25 2.7368e-13
6003.99 2.7092e-13
6006.73 2.6927e-13
6009.46 2.6823e-13
6012.2 2.6962e-13
6014.93 2.6923e-13
6017.67 2.6709e-13
6020.41 2.6817e-13
6023.14 2.7209e-13
6025.88 2.7421e-13
6028.62 2.7501e-13
6031.35 2.7886e-13
6034.09 2.8211e-13
6036.82 2.8082e-13
6039.56 2.8017e-13
6042.3 2.8045e-13
6045.03 2.8089e-13
6047.77 2.8171e-13
6050.5 2.8178e-13
6053.24 2.8115e-13
6055.98 2.7929e-13
6058.71 2.7754e-13
6061.45 2.7606e-13
6064.19 2.764e-13
6066.92 2.7879e-13
6069.66 2.8227e-13
6072.39 2.8398e-13
6075.13 2.8358e-13
6077.87 2.8052e-13
6080.6 2.7916e-13
6083.34 2.7306e-13
6086.07 2.756e-13
6088.81 2.7323e-13
6091.55 2.7421e-13
6094.28 2.7525e-13
6097.02 2.7511e-13
6099.76 2.7581e-13
6102.49 2.713e-13
6105.23 2.7453e-13
6107.96 2.7483e-13
6110.7 2.7251e-13
6113.44 2.7643e-13
6116.17 2.7368e-13
6118.91 2.7212e-13
6121.64 2.7136e-13
6124.38 2.7174e-13
6127.12 2.7364e-13
6129.85 2.7416e-13
6132.59 2.71e-13
6135.33 2.6894e-13
6138.06 2.7017e-13
6140.8 2.6889e-13
6143.53 2.718e-13
6146.27 2.7147e-13
6149.01 2.7544e-13
6151.74 2.7023e-13
6154.48 2.6811e-13
6157.21 2.6358e-13
6159.95 2.5551e-13
6162.69 2.5149e-13
6165.42 2.5266e-13
6168.16 2.531e-13
6170.9 2.5634e-13
6173.63 2.5963e-13
6176.37 2.6287e-13
6179.1 2.6456e-13
6181.84 2.636e-13
6184.58 2.6518e-13
6187.31 2.6282e-13
6190.05 2.623e-13
6192.78 2.6199e-13
6195.52 2.6244e-13
6198.26 2.6326e-13
6200.99 2.7027e-13
6203.73 2.7092e-13
6206.47 2.6965e-13
6209.2 2.619e-13
6211.94 2.6024e-13
6214.67 2.564e-13
6217.41 2.5511e-13
6220.15 2.5828e-13
6222.88 2.6037e-13
6225.62 2.6103e-13
6228.35 2.5885e-13
6231.09 2.5389e-13
6233.83 2.5485e-13
6236.56 2.5608e-13
6239.3 2.5269e-13
6242.04 2.5204e-13
6244.77 2.5252e-13
6247.51 2.5571e-13
6250.24 2.4706e-13
6252.98 2.507e-13
6255.72 2.5359e-13
6258.45 2.5298e-13
6261.19 2.4929e-13
6263.92 2.5783e-13
6266.66 2.6045e-13
6269.4 2.6017e-13
6272.13 2.6612e-13
6274.87 2.6043e-13
6277.61 2.6067e-13
6280.34 2.5862e-13
6283.08 2.5877e-13
6285.81 2.6651e-13
6288.55 2.7102e-13
6291.29 2.7023e-13
6294.02 2.7271e-13
6296.76 2.7171e-13
6299.49 2.73e-13
6302.23 2.7071e-13
6304.97 2.6648e-13
6307.7 2.676e-13
6310.44 2.6988e-13
6313.18 2.6629e-13
6315.91 2.7074e-13
6318.65 2.5702e-13
6321.38 2.6517e-13
6324.12 2.6196e-13
6326.86 2.6837e-13
6329.59 2.7218e-13
6332.33 2.7012e-13
6335.06 2.6753e-13
6337.8 2.6615e-13
6340.54 2.6556e-13
6343.27 2.6917e-13
6346.01 2.686e-13
6348.75 2.686e-13
6351.48 2.6951e-13
6354.22 2.7515e-13
6356.95 2.6488e-13
6359.69 2.6132e-13
6362.43 2.6129e-13
6365.16 2.6351e-13
6367.9 2.6946e-13
6370.63 2.7347e-13
6373.37 2.7464e-13
6376.11 2.7643e-13
6378.84 2.7434e-13
6381.58 2.7352e-13
6384.32 2.7509e-13
6387.05 2.7656e-13
6389.79 2.7489e-13
6392.52 2.7248e-13
6395.26 2.7043e-13
6398.0 2.6718e-13
6400.73 2.6573e-13
6403.47 2.7227e-13
6406.2 2.7365e-13
6408.94 2.7241e-13
6411.68 2.6751e-13
6414.41 2.6755e-13
6417.15 2.6928e-13
6419.89 2.6641e-13
6422.62 2.7284e-13
6425.36 2.7293e-13
6428.09 2.7428e-13
6430.83 2.7596e-13
6433.57 2.719e-13
6436.3 2.7065e-13
6439.04 2.7259e-13
6441.77 2.7458e-13
6444.51 2.7193e-13
6447.25 2.7348e-13
6449.98 2.7124e-13
6452.72 2.6817e-13
6455.46 2.7241e-13
6458.19 2.765e-13
6460.93 2.7708e-13
6463.66 2.7988e-13
6466.4 2.7644e-13
6469.14 2.7574e-13
6471.87 2.7695e-13
6474.61 2.7965e-13
6477.34 2.7648e-13
6480.08 2.7866e-13
6482.82 2.7449e-13
6485.55 2.7352e-13
6488.29 2.7295e-13
6491.03 2.6728e-13
6493.76 2.5996e-13
6496.5 2.5889e-13
6499.23 2.6091e-13
6501.97 2.615e-13
6504.71 2.6617e-13
6507.44 2.7487e-13
6510.18 2.7756e-13
6512.91 2.7761e-13
6515.65 2.7766e-13
6518.39 2.801e-13
6521.12 2.785e-13
6523.86 2.7532e-13
6526.6 2.7569e-13
6529.33 2.7929e-13
6532.07 2.7718e-13
6534.8 2.7743e-13
6537.54 2.8262e-13
6540.28 2.9093e-13
6543.01 2.9547e-13
6545.75 2.9927e-13
6548.48 2.976e-13
6551.22 2.956e-13
6553.96 2.9151e-13
6556.69 2.9388e-13
6559.43 3.0311e-13
6562.17 3.152e-13
6564.9 3.1262e-13
6567.64 2.9393e-13
6570.37 2.8622e-13
6573.11 2.8111e-13
6575.85 2.9278e-13
6578.58 3.1016e-13
6581.32 3.4169e-13
6584.05 3.5026e-13
6586.79 3.418e-13
6589.53 3.1347e-13
6592.26 2.9425e-13
6595.0 2.7935e-13
6597.74 2.7409e-13
6600.47 2.7355e-13
6603.21 2.7356e-13
6605.94 2.6867e-13
6608.68 2.6991e-13
6611.42 2.7179e-13
6614.15 2.7259e-13
6616.89 2.7596e-13
6619.62 2.7673e-13
6622.36 2.7564e-13
6625.1 2.7283e-13
6627.83 2.7329e-13
6630.57 2.6938e-13
6633.31 2.6562e-13
6636.04 2.6601e-13
6638.78 2.655e-13
6641.51 2.7126e-13
6644.25 2.7022e-13
6646.99 2.6991e-13
6649.72 2.683e-13
6652.46 2.6525e-13
6655.19 2.6723e-13
6657.93 2.7127e-13
6660.67 2.6567e-13
6663.4 2.6516e-13
6666.14 2.6619e-13
6668.88 2.6522e-13
6671.61 2.6421e-13
6674.35 2.646e-13
6677.08 2.6458e-13
6679.82 2.6445e-13
6682.56 2.6583e-13
6685.29 2.6674e-13
6688.03 2.6532e-13
6690.76 2.6654e-13
6693.5 2.6684e-13
6696.24 2.6724e-13
6698.97 2.6796e-13
6701.71 2.6635e-13
6704.45 2.6523e-13
6707.18 2.685e-13
6709.92 2.7573e-13
6712.65 2.8343e-13
6715.39 2.8749e-13
6718.13 2.868e-13
6720.86 2.8409e-13
6723.6 2.8033e-13
6726.33 2.8202e-13
6729.07 2.8484e-13
6731.81 2.8465e-13
6734.54 2.7684e-13
6737.28 2.6993e-13
6740.02 2.6613e-13
6742.75 2.6234e-13
6745.49 2.5837e-13
6748.22 2.5904e-13
6750.96 2.5719e-13
6753.7 2.5487e-13
6756.43 2.5667e-13
6759.17 2.5963e-13
6761.9 2.606e-13
6764.64 2.6121e-13
6767.38 2.5861e-13
6770.11 2.5794e-13
6772.85 2.6053e-13
6775.59 2.6006e-13
6778.32 2.6204e-13
6781.06 2.6254e-13
6783.79 2.5644e-13
6786.53 2.5413e-13
6789.27 2.565e-13
6792.0 2.6799e-13
6794.74 2.6289e-13
6804.69 2.6365e-13
6820.37 2.6363e-13
6836.09 2.6482e-13
6851.85 2.6419e-13
6867.65 2.5345e-13
6883.48 2.5992e-13
6899.35 2.6291e-13
6915.25 2.6228e-13
6931.19 2.6408e-13
6947.17 2.6897e-13
6963.19 2.6771e-13
6979.24 2.7203e-13
6995.32 2.6766e-13
7011.45 2.6155e-13
7027.62 2.7196e-13
7043.81 2.6821e-13
7060.05 2.6511e-13
7076.33 2.5609e-13
7092.64 2.5198e-13
7108.99 2.5312e-13
7125.38 2.5309e-13
7141.8 2.496e-13
7158.27 2.5131e-13
7174.77 2.4955e-13
7191.31 2.4106e-13
7207.89 2.4159e-13
7224.5 2.5648e-13
7241.16 2.5294e-13
7257.85 2.5233e-13
7274.58 2.6481e-13
7291.35 2.5229e-13
7308.16 2.5873e-13
7325.01 2.605e-13
7341.89 2.6839e-13
7358.82 2.653e-13
7375.78 2.7083e-13
7392.78 2.6342e-13
7409.83 2.7581e-13
7426.91 2.7075e-13
7444.03 2.7831e-13
7461.19 2.8022e-13
7478.39 2.7318e-13
7495.63 2.7696e-13
7512.91 2.7376e-13
7530.23 2.7437e-13
7547.59 2.8073e-13
7564.98 2.7306e-13
7582.42 2.7619e-13
7599.9 2.6679e-13
7617.42 2.6615e-13
7634.98 2.7358e-13
7652.58 2.6794e-13
7670.22 2.4661e-13
7687.91 2.588e-13
7705.63 2.5877e-13
7723.39 2.5286e-13
7741.2 2.5694e-13
7759.04 2.4992e-13
7776.92 2.563e-13
7794.86 2.516e-13
7812.82 2.5803e-13
7830.83 2.6159e-13
7848.89 2.5917e-13
7866.98 2.6335e-13
7885.11 2.5793e-13
7903.29 2.4915e-13
7921.51 2.4458e-13
7939.77 2.4625e-13
7958.08 2.4965e-13
7976.42 2.5662e-13
7994.81 2.5133e-13
8013.24 2.5716e-13
8031.71 2.5772e-13
8050.22 2.6309e-13
8068.78 2.6367e-13
8087.38 2.5705e-13
8106.03 2.5002e-13
8124.71 2.5289e-13
8143.44 2.5638e-13
8162.21 2.5342e-13
8181.03 2.611e-13
8199.89 2.5987e-13
8218.79 2.6104e-13
8237.74 2.2629e-13
8256.73 2.6584e-13
8275.76 2.6704e-13
8294.84 2.5441e-13
8313.96 2.4182e-13
8333.13 2.5377e-13
8352.34 2.5492e-13
8371.59 2.5314e-13
8390.89 2.4061e-13
8410.23 2.5192e-13
8429.62 2.5189e-13
8449.05 2.4276e-13
8468.53 2.4554e-13
8488.05 2.4608e-13
8507.62 1.8115e-13
8527.23 2.3768e-13
8546.89 2.0274e-13
8566.59 2.4093e-13
8586.34 2.4595e-13
8606.13 2.3757e-13
8625.97 2.442e-13
8645.85 2.4587e-13
8665.79 2.3103e-13
8685.76 2.3153e-13
8705.78 2.4075e-13
8725.86 2.452e-13
8745.97 2.3794e-13
8766.13 2.4067e-13
8786.34 2.4796e-13
8806.59 2.4622e-13
8826.9 2.4847e-13
8847.24 2.3672e-13
8867.64 2.4109e-13
8888.08 2.2706e-13
8908.57 2.3339e-13
8929.11 2.3123e-13
8949.69 2.3334e-13
8970.32 2.28e-13
8991.0 2.3062e-13
9011.73 2.2021e-13
9032.5 2.1617e-13
9053.32 2.4817e-13
9074.19 2.4138e-13
9095.11 2.2732e-13
9116.08 2.247e-13
9137.09 2.3744e-13
9158.15 2.32e-13
9179.27 2.2001e-13
9200.43 2.3302e-13
9221.64 2.2098e-13
9242.89 2.2454e-13
9264.2 2.2503e-13
9285.56 2.3399e-13
9306.96 2.0756e-13
9328.42 2.3719e-13
9349.92 2.3661e-13
9371.48 2.328e-13
9393.08 2.3601e-13
9414.73 2.3168e-13
9436.44 2.3705e-13
9458.19 2.3431e-13
9480.0 2.3863e-13
9501.85 2.3425e-13
9523.75 2.353e-13
9545.71 2.3045e-13
9567.71 2.3417e-13
9589.76 2.374e-13
9611.87 2.3465e-13
9634.03 2.357e-13
9656.24 2.3191e-13
9678.5 2.3188e-13
9700.81 2.3454e-13
9723.17 2.2864e-13
9745.59 2.2809e-13
9768.06 2.2911e-13
9790.57 2.2594e-13
9813.14 2.3064e-13
9835.76 2.2903e-13
9858.44 2.2953e-13
9881.16 2.2792e-13
9903.94 2.2528e-13
9926.77 2.2681e-13
9949.65 2.2731e-13
9972.59 2.2728e-13
9995.58 2.2621e-13
10018.62 2.2618e-13
10064.87 2.2302e-13
10134.63 2.25e-13
10181.42 2.2288e-13
10228.41 2.2282e-13
10275.62 2.2328e-13
10299.3 2.2171e-13
10490.78 2.1495e-13
10710.46 2.0652e-13
10909.58 1.9951e-13
11112.4 1.9141e-13
11292.96 1.8705e-13
11502.92 1.8534e-13
11689.83 1.8028e-13
11907.16 1.7416e-13
12100.63 1.7059e-13
12297.25 1.6748e-13
12497.06 1.6291e-13
12700.12 1.5921e-13
12906.48 1.5558e-13
13086.03 1.5239e-13
13298.66 1.4824e-13
13514.75 1.4553e-13
13702.76 1.4288e-13
13893.38 1.3803e-13
14086.66 1.3273e-13
14315.55 1.306e-13
14514.7 1.3091e-13
14716.62 1.2675e-13
14887.03 1.2763e-13
15094.14 1.2793e-13
15304.1 1.2971e-13
15517.0 1.2852e-13
15696.69 1.2646e-13
15915.05 1.2217e-13
16099.34 1.2273e-13
16285.77 1.2161e-13
16512.31 1.1966e-13
16703.52 1.1802e-13
16896.94 1.156e-13
17092.6 1.1271e-13
17290.51 1.0838e-13
17490.73 1.0494e-13
17693.27 1.0092e-13
17898.15 9.749e-14
18105.4 9.3102e-14
18315.04 9.0565e-14
18484.52 8.749e-14
18698.56 8.3938e-14
18915.06 8.1463e-14
19090.09 7.9792e-14
19311.15 7.7083e-14
19489.82 7.3953e-14
19715.51 7.1607e-14
19897.94 6.9336e-14
20082.04 6.807e-14
20314.59 6.5608e-14
20502.56 6.4559e-14
20692.26 6.28e-14
20883.73 6.1088e-14
21076.97 5.9973e-14
21321.01 5.8473e-14
21518.3 5.7142e-14
21717.42 5.5202e-14
21918.35 5.407e-14
22121.17 5.2476e-14
22274.5 5.1046e-14
22480.61 4.9769e-14
22688.61 4.8413e-14
22898.55 4.3447e-14
23110.44 4.2949e-14
23324.26 3.758e-14
23485.95 3.5478e-14
23703.25 3.5971e-14
23922.58 3.3034e-14
24088.39 3.1986e-14
24311.29 3.162e-14
24479.8 2.9577e-14
24706.32 2.9171e-14
24877.56 2.4658e-14
25107.76 2.432e-14
25281.81 2.4488e-14
25515.73 2.4264e-14
25692.61 2.4658e-14
25870.69 2.4152e-14
26110.08 2.4097e-14
26291.05 2.344e-14
26473.31 2.3172e-14
26718.24 2.2749e-14
26903.46 2.2385e-14
27089.93 2.2027e-14
27277.73 2.1526e-14
27530.11 2.123e-14
27720.95 2.0699e-14
27913.09 2.0415e-14
28106.6 1.9997e-14
28301.41 1.9677e-14
28497.57 1.9229e-14
28695.12 1.8835e-14
28894.01 1.8534e-14
29094.31 1.8153e-14
29295.97 1.774e-14
29499.06 1.7416e-14
29703.52 1.7099e-14
29909.43 1.6748e-14
30116.74 1.6442e-14
30325.52 1.6142e-14
30465.48 1.5921e-14
30676.65 1.5666e-14
30889.3 1.538e-14
31103.4 1.5134e-14
31319.02 1.4927e-14
31536.1 1.4654e-14
31681.65 1.4387e-14
31901.28 1.4189e-14
32122.39 1.3962e-14
32270.68 1.3739e-14
32494.36 1.3551e-14
32719.62 1.3426e-14
32870.63 1.3426e-14
33098.46 1.3242e-14
33327.91 1.2705e-14
33481.73 1.2387e-14
33713.84 1.2105e-14
33869.44 1.1857e-14
34104.2 1.1613e-14
34261.64 1.1401e-14
34499.12 1.1193e-14
34738.28 1.0989e-14
34898.61 1.0764e-14
35059.68 1.0567e-14
35302.72 1.035e-14
35465.66 1.0162e-14
35711.48 9.976e-15
35876.34 9.7714e-15
36125.01 9.6152e-15
36291.74 9.418e-15
36459.29 9.2248e-15
36711.99 9.0565e-15
36881.43 8.8503e-15
37137.11 8.6888e-15
37308.51 8.5498e-15
37480.75 8.336e-15
37740.53 8.2216e-15
37914.72 8.0716e-15
38089.76 7.9243e-15
38265.56 7.7796e-15
38530.78 7.6552e-15
38708.66 7.481e-15
38887.32 7.3614e-15
39066.8 7.227e-15
39337.62 7.0951e-15
39519.19 6.9496e-15
39701.59 6.8227e-15
39884.87 6.6674e-15
40068.96 6.5759e-15
40253.89 6.4708e-15
40532.94 6.3381e-15
40720.02 6.2367e-15
40907.96 6.1229e-15
41096.82 6.025e-15
41286.5 5.9287e-15
41477.05 5.8339e-15
41668.54 5.7274e-15
41860.85 5.6358e-15
42054.06 5.533e-15
42345.59 5.4571e-15
42541.04 5.3575e-15
42737.38 5.2839e-15
42934.68 5.0694e-15
43132.85 4.8524e-15
43331.92 4.8413e-15
43531.92 4.6447e-15
43732.89 4.539e-15
43934.73 4.4561e-15
44137.51 4.3148e-15
44341.27 4.236e-15
44545.93 4.1683e-15
44648.61 4.064e-15
44854.68 4.0268e-15
45061.76 3.9624e-15
45269.74 3.8811e-15
45478.68 3.8455e-15
45688.64 3.7928e-15
45899.51 3.6894e-15
46111.36 3.6809e-15
46324.23 3.6221e-15
46538.04 3.5724e-15
46752.83 3.556e-15
46860.6 3.4911e-15
47076.94 3.4353e-15
47294.22 3.4273e-15
47512.5 3.3571e-15
47731.85 3.3263e-15
47952.15 3.2882e-15
48062.69 3.2134e-15
48284.52 3.2208e-15
48507.42 3.1547e-15
48731.31 3.1043e-15
48956.23 3.0687e-15
49069.07 3.0197e-15
49295.6 2.9989e-15
49523.12 2.9509e-15
49751.7 2.9306e-15
49866.38 2.8771e-15
50096.59 2.8507e-15
50327.81 2.8116e-15
50443.82 2.7667e-15
50676.64 2.7413e-15
50793.51 2.7224e-15
50910.59 2.7162e-15
51027.94 2.6913e-15
51145.56 2.6666e-15
51263.46 2.6544e-15
51381.63 2.6361e-15
51500.12 2.6119e-15
51618.83 2.5999e-15
51737.82 2.5939e-15
51857.08 2.5642e-15
51976.61 2.5466e-15
52096.42 2.5349e-15
52216.5 2.5116e-15
52336.93 2.4944e-15
52457.56 2.4772e-15
52578.48 2.4715e-15
52699.68 2.4658e-15
52821.16 2.4432e-15
52942.91 2.4208e-15
53065.01 2.4041e-15
53187.33 2.3876e-15
53309.93 2.3766e-15
53432.81 2.3657e-15
53555.98 2.3494e-15
53679.43 2.3332e-15
53803.16 2.3225e-15
53927.24 2.3118e-15
54051.55 2.2959e-15
54176.14 2.2801e-15
54301.02 2.2592e-15
54426.19 2.2488e-15
54551.64 2.2385e-15
54677.39 2.2231e-15
54803.49 2.2027e-15
54929.81 2.1926e-15
55056.43 2.1775e-15
55183.34 2.1675e-15
55310.54 2.1675e-15
55438.03 2.1476e-15
55565.88 2.123e-15
55693.97 2.123e-15
55822.35 2.1084e-15
55951.02 2.0939e-15
56079.99 2.0843e-15
56209.26 2.0747e-15
56338.83 2.0557e-15
56468.75 2.051e-15
56598.92 2.0462e-15
56729.38 2.0322e-15
56860.15 2.0182e-15
56991.21 2.0043e-15
57122.58 2.0043e-15
57254.32 1.9951e-15
57386.29 1.9859e-15
57518.57 1.9768e-15
57651.16 1.9677e-15
57784.05 1.9587e-15
57917.24 1.9542e-15
58050.75 1.9452e-15
58184.62 1.9362e-15
58318.74 1.9318e-15
58453.17 1.9273e-15
58587.91 1.9229e-15
58722.96 1.9185e-15
58858.32 1.9141e-15
58993.99 1.9141e-15
59130.04 1.9097e-15
59266.34 1.9141e-15
59402.95 1.9141e-15
59539.88 1.9141e-15
59677.12 1.9229e-15
59814.69 1.9318e-15
59952.63 1.9362e-15
60090.82 1.9497e-15
60229.34 1.9632e-15
60368.17 1.9813e-15
60507.32 1.9951e-15
60646.8 2.0182e-15
60786.59 2.051e-15
60926.77 2.0843e-15
61067.21 2.123e-15
61207.98 2.1725e-15
61349.07 2.2385e-15
61490.48 2.2959e-15
61632.22 2.3766e-15
61774.36 2.4601e-15
61916.75 2.5525e-15
62059.48 2.6544e-15
62202.52 2.754e-15
62345.9 2.8376e-15
62489.62 2.9104e-15
62633.66 2.9577e-15
62778.1 2.9782e-15
62922.81 2.9509e-15
63067.85 2.8971e-15
63213.23 2.8181e-15
63358.94 2.7476e-15
63504.99 2.6544e-15
63651.44 2.5701e-15
63798.16 2.4772e-15
63945.22 2.3931e-15
64092.62 2.3118e-15
64240.36 2.2592e-15
64388.44 2.1976e-15
64536.86 2.1427e-15
64685.69 2.0939e-15
64834.8 2.0415e-15
64984.24 1.9997e-15
65134.04 1.9587e-15
65284.18 1.9229e-15
65434.66 1.8922e-15
65585.49 1.8662e-15
65736.74 1.8491e-15
65888.27 1.8321e-15
66040.15 1.8153e-15
66192.38 1.8028e-15
66344.95 1.7904e-15
66497.88 1.7781e-15
66651.24 1.7659e-15
66804.87 1.7578e-15
66958.87 1.7457e-15
67113.21 1.7376e-15
67267.91 1.7296e-15
67422.96 1.7177e-15
67578.38 1.7099e-15
67734.23 1.6981e-15
67890.37 1.6864e-15
68046.85 1.6786e-15
68203.71 1.6671e-15
68360.92 1.6594e-15
68518.5 1.6518e-15
68676.51 1.6442e-15
68834.82 1.6404e-15
68993.49 1.6329e-15
69152.52 1.6291e-15
69311.92 1.6254e-15
69471.69 1.6217e-15
69631.83 1.6179e-15
69792.41 1.6142e-15
69953.29 1.6105e-15
70114.53 1.6068e-15
70276.15 1.6068e-15
70438.15 1.6031e-15
70600.51 1.6031e-15
70763.33 1.6068e-15
70926.44 1.6068e-15
71089.93 1.6142e-15
71253.8 1.6179e-15
71418.05 1.6254e-15
71582.67 1.6329e-15
71747.68 1.6442e-15
71913.14 1.6556e-15
72078.9 1.6671e-15
72245.05 1.6786e-15
72411.57 1.6981e-15
72578.49 1.7177e-15
72745.79 1.7457e-15
72913.47 1.7781e-15
73081.62 1.8153e-15
73250.08 1.8534e-15
73418.93 1.8965e-15
73588.17 1.9362e-15
73757.79 1.9859e-15
73927.81 2.0415e-15
74098.3 2.0939e-15
74269.1 2.1526e-15
74440.29 2.2078e-15
74611.89 2.2592e-15
74783.87 2.3225e-15
74956.25 2.4097e-15
75129.03 2.5001e-15
75302.29 2.5761e-15
75475.87 2.6361e-15
75649.84 2.6851e-15
75824.23 2.7224e-15
75999.01 2.7603e-15
76174.19 2.7923e-15
76349.86 2.8116e-15
76525.85 2.8181e-15
76702.25 2.8116e-15
76879.05 2.7923e-15
77056.27 2.7731e-15
77233.88 2.7476e-15
77411.91 2.7162e-15
77590.44 2.6727e-15
77769.29 2.6361e-15
77948.56 2.5939e-15
78128.23 2.5525e-15
78308.32 2.5116e-15
78488.83 2.4715e-15
78669.75 2.4264e-15
78851.18 2.3821e-15
79032.94 2.3332e-15
79215.11 2.2801e-15
79397.71 2.2231e-15
79580.73 2.1526e-15
79900.29 1.9349e-15
80518.12 1.9662e-15
81135.93 1.4909e-15
81753.74 1.5668e-15
82371.56 1.4281e-15
82989.37 1.2335e-15
83607.2 1.2571e-15
84225.01 1.0588e-15
84842.83 9.0136e-16
85460.64 1.0694e-15
86078.47 1.0238e-15
86696.27 1.0007e-15
87314.09 1.0041e-15
87931.91 8.7213e-16
88549.72 9.0327e-16
89167.53 7.8967e-16
89785.35 8.5492e-16
90403.16 8.2162e-16
91020.99 8.3262e-16
91638.8 7.7818e-16
92256.62 8.0084e-16
92874.44 8.3484e-16
93492.25 9.1726e-16
94110.06 8.313e-16
94727.87 8.4316e-16
95345.7 8.5114e-16
95963.51 1.031e-15
96581.32 1.6583e-15
97199.15 1.3019e-15
97816.97 9.0836e-16
98434.78 8.0326e-16
99052.6 7.5217e-16
99670.37 8.1965e-16
100288.24 7.4715e-16
100906.01 7.148e-16
101523.89 7.1985e-16
102141.66 7.4286e-16
102759.53 7.678e-16
103377.32 7.6203e-16
103995.09 8.0618e-16
104612.96 8.0843e-16
105230.73 8.6592e-16
105848.61 7.491e-16
106466.38 7.9438e-16
107084.15 7.7076e-16
107702.03 7.7331e-16
108319.81 7.5713e-16
108937.67 7.3307e-16
109555.45 6.6762e-16
110173.32 6.6074e-16
110791.1 7.4196e-16
111408.87 8.7592e-16
112026.75 1.1763e-15
112644.52 1.303e-15
113262.39 1.2379e-15
113880.16 1.0003e-15
114498.04 9.0528e-16
115115.81 7.7218e-16
115733.58 7.3359e-16
116351.46 6.3472e-16
116969.24 5.9843e-16
117587.1 6.9474e-16
118204.88 7.0325e-16
118822.76 7.801e-16
119440.53 7.0945e-16
120058.3 7.4225e-16
120676.18 7.8185e-16
121293.96 7.0375e-16
121911.82 7.3862e-16
122529.59 9.0902e-16
123147.38 8.8234e-16
123765.25 6.6932e-16
124383.02 5.9421e-16
125000.89 7.1348e-16
125618.67 6.8446e-16
126236.54 6.762e-16
126854.32 6.7811e-16
127472.09 7.9771e-16
128089.97 1.0003e-15
128707.74 7.3124e-16
129325.61 5.682e-16
129943.38 4.8992e-16
130561.16 4.8961e-16
131179.03 4.8487e-16
131796.81 4.8446e-16
132414.68 4.8367e-16
133032.45 4.7856e-16
133650.32 4.6091e-16
134268.1 4.7754e-16
134885.88 4.6142e-16
135503.76 4.6215e-16
136121.52 4.8971e-16
136739.4 4.1174e-16
137357.18 4.1356e-16
137975.05 3.8487e-16
138592.81 3.8334e-16
139210.59 4.0793e-16
139828.47 4.8658e-16
140446.25 5.0521e-16
141064.11 4.6343e-16
141681.89 4.4176e-16
142299.76 4.4998e-16
142917.54 4.0679e-16
143535.31 3.9886e-16
144153.19 3.5251e-16
144684.8 4.2243e-16
145597.08 3.8065e-16
146509.46 3.6918e-16
147421.75 3.3557e-16
148334.02 3.6293e-16
149246.31 3.5307e-16
150158.7 3.4089e-16
151070.99 3.4555e-16
151983.26 3.6375e-16
152895.64 3.5186e-16
153807.93 3.5741e-16
154720.21 4.1181e-16
155632.5 4.6934e-16
156544.88 4.1016e-16
157457.17 3.9825e-16
158369.45 3.8504e-16
159281.83 4.3403e-16
160194.12 3.8948e-16
161106.4 3.7658e-16
162018.78 3.9033e-16
162931.07 4.5459e-16
163843.34 5.2716e-16
164755.63 5.6527e-16
165668.03 5.1491e-16
166580.29 4.7625e-16
167492.58 5.1418e-16
168404.87 5.3694e-16
169317.25 6.5353e-16
170229.54 9.38e-16
171141.83 7.9235e-16
172054.22 5.9328e-16
172966.49 5.282e-16
173878.78 4.9732e-16
174791.17 4.7338e-16
175703.44 4.2718e-16
176615.73 3.9794e-16
177528.01 4.0913e-16
178440.39 3.7786e-16
179352.68 3.8732e-16
180264.95 3.598e-16
181177.34 3.328e-16
182089.63 2.9928e-16
183001.9 3.1519e-16
183914.28 3.0379e-16
184826.57 3.1193e-16
185738.86 3.3091e-16
186651.14 3.8965e-16
187563.52 4.5456e-16
188475.81 3.3516e-16
189388.09 3.3014e-16
190300.49 3.3671e-16
191212.78 3.0759e-16
192125.03 2.6692e-16
193037.32 2.8965e-16
193949.72 2.8761e-16
194862.0 3.1725e-16
195774.29 2.73e-16
196686.67 2.7281e-16
197598.95 2.6165e-16
198511.24 2.6126e-16
199423.53 2.7009e-16
200335.91 2.4723e-16
201248.18 2.33e-16
202160.47 2.5525e-16
203072.86 2.6099e-16
204167.41 2.5172e-16
205923.84 2.5089e-16
207681.34 2.4603e-16
209439.73 2.4005e-16
211199.22 2.5545e-16
212959.72 2.2616e-16
214721.31 2.3421e-16
216483.78 2.373e-16
218247.36 2.5395e-16
220011.94 2.3511e-16
221777.6 2.1569e-16
223544.27 2.2723e-16
225311.92 2.3909e-16
227080.66 2.1701e-16
228850.41 2.2231e-16
230621.15 2.2177e-16
232392.98 2.1917e-16
234165.82 2.2289e-16
235939.74 2.3212e-16
237714.76 2.2357e-16
239490.77 2.1636e-16
241267.78 2.1265e-16
243045.89 2.1086e-16
244824.98 2.036e-16
246605.29 2.0237e-16
248386.48 1.9984e-16
250168.74 1.98e-16
251952.12 2.0405e-16
253736.59 1.9436e-16
255522.06 1.9238e-16
257308.61 2.1198e-16
259096.27 2.3775e-16
260885.02 2.253e-16
262674.77 1.9723e-16
264465.59 1.8412e-16
266257.55 1.8456e-16
268050.45 1.8699e-16
269844.59 1.9426e-16
271639.69 1.897e-16
273435.91 1.8501e-16
275233.23 1.8303e-16
277031.63 1.8768e-16
278831.11 1.8561e-16
280631.69 2.0045e-16
282433.39 2.1149e-16
284236.17 1.9256e-16
286040.04 1.7772e-16
287845.0 1.812e-16
289651.05 1.8655e-16
291458.22 1.7882e-16
293266.48 1.7713e-16
295075.82 1.7135e-16
296886.35 1.7059e-16
298697.99 1.7683e-16
300510.6 1.7969e-16
302324.43 1.8152e-16
304139.34 1.8428e-16
305955.46 1.8071e-16
307772.58 1.8356e-16
309590.88 1.844e-16
311410.36 1.8098e-16
313230.86 1.6977e-16
315052.55 1.7648e-16
316875.39 1.7823e-16
318699.26 1.7681e-16
320524.33 1.9315e-16
322350.62 1.8651e-16
324177.94 1.8174e-16
326006.38 1.8297e-16
327836.06 1.7978e-16
329666.89 1.8412e-16
331498.8 1.8136e-16
333331.84 2.1411e-16
335166.06 2.5073e-16
337001.49 2.1067e-16
338838.07 1.843e-16
340675.77 1.6844e-16
342514.59 1.8097e-16
344354.66 1.8675e-16
346195.87 2.3178e-16
348038.24 3.7163e-16
