# col1 col2
# An Atlas of Galaxy Spectral Energy Distributions from the Ultraviolet to the Mid-Infrared
# Brown et al. (2014)
# http://dx.doi.org/10.5072/03/529D3551F0117
# 
# Column 1 : Restframe Wavelength (Angstrom)
# Column 2 : Flux per unit wavelength (ergs/s/cm^2/Angstrom)
# Column 3 : Observed wavelength (Angstrom)
# Column 4 : Source (0 = model, 1 = Optical Spectrum, 2 = Akari, 3 = Spitzer IRS)
# 
102.09 1.9891e-26
103.99 3.0037e-26
105.92 4.5883e-26
107.89 7.1065e-26
109.9 1.2236e-25
114.02 2.5215e-25
118.03 4.8046e-25
121.06 2.2628e-24
125.02 3.8695e-24
127.06 4.8714e-24
127.94 5.5546e-24
130.92 7.6499e-24
132.13 9.6974e-24
133.97 1.1821e-23
137.09 1.8309e-23
139.96 2.4247e-23
142.89 8.311e-23
146.89 2.7584e-22
151.01 3.6868e-22
154.88 4.9506e-22
158.85 6.6169e-22
162.18 8.1218e-22
165.96 1.0731e-21
169.82 1.3761e-21
172.98 1.6545e-21
177.01 2.0876e-21
179.88 2.4641e-21
181.97 2.7584e-21
186.21 3.4092e-21
190.98 4.402e-21
194.09 5.1482e-21
198.15 6.2038e-21
201.83 7.493e-21
205.11 8.5636e-21
209.89 1.0154e-20
215.77 1.3604e-20
219.78 1.602e-20
222.84 1.7769e-20
226.98 2.0828e-20
230.14 3.4886e-20
233.88 6.4812e-20
239.88 9.2396e-20
246.03 1.0085e-19
251.76 1.2265e-19
257.04 1.1605e-19
260.01 1.4179e-19
264.24 1.6168e-19
269.15 1.7851e-19
274.15 1.9573e-19
279.25 2.1412e-19
283.79 2.3424e-19
289.73 2.4755e-19
295.8 2.7839e-19
301.3 2.983e-19
308.31 3.3547e-19
317.68 3.9414e-19
328.09 4.4942e-19
338.06 5.0542e-19
348.33 5.6319e-19
357.27 6.2038e-19
365.59 6.8494e-19
374.97 7.4243e-19
384.59 7.8461e-19
395.36 8.8035e-19
404.57 9.5864e-19
413.99 1.0201e-18
421.69 1.0682e-18
429.53 1.1211e-18
440.55 1.2069e-18
450.81 1.2696e-18
460.25 1.3263e-18
469.89 1.3953e-18
479.73 1.4745e-18
489.77 1.5193e-18
500.03 1.6094e-18
505.82 1.6355e-18
511.67 1.7687e-18
519.99 1.8266e-18
529.66 1.8822e-18
539.5 1.9039e-18
549.53 2.0029e-18
559.75 2.1363e-18
570.16 2.2628e-18
579.42 2.2943e-18
590.19 2.4359e-18
599.78 2.4698e-18
609.53 2.3804e-18
619.43 2.7711e-18
629.5 2.8619e-18
639.73 2.9625e-18
650.12 3.1092e-18
657.65 3.2037e-18
665.26 3.3393e-18
674.52 3.4171e-18
685.48 3.4171e-18
695.01 3.8517e-18
704.68 3.7989e-18
716.13 4.2233e-18
726.1 4.3818e-18
734.5 4.5254e-18
744.72 4.8714e-18
755.08 5.1128e-18
765.59 5.1601e-18
774.45 5.7234e-18
785.22 6.007e-18
794.32 6.3046e-18
805.37 6.6017e-18
814.69 6.8652e-18
824.13 7.4243e-18
835.59 6.5111e-18
845.27 7.9005e-18
855.05 8.1781e-18
864.96 8.763e-18
874.97 9.3898e-18
885.1 1.0178e-17
895.35 1.0756e-17
905.72 1.0881e-17
914.1 1.6545e-17
924.68 1.0756e-16
935.39 2.4303e-16
944.05 4.8046e-16
954.98 7.0738e-16
966.04 7.9553e-16
974.98 1.2124e-16
984.0 6.6322e-16
995.39 7.3732e-16
1004.6 1.142e-15
1013.9 1.1263e-15
1025.64 4.8379e-16
1035.13 7.7921e-16
1044.71 1.5983e-15
1054.37 1.5873e-15
1064.13 1.235e-15
1073.97 1.5228e-15
1083.91 1.1821e-15
1093.94 1.6506e-15
1104.06 1.602e-15
1114.28 1.544e-15
1124.59 1.392e-15
1134.99 1.8478e-15
1145.5 1.6852e-15
1156.1 1.8351e-15
1164.11 1.9171e-15
1174.88 1.3021e-15
1185.75 1.8996e-15
1193.97 1.2608e-15
1205.02 8.7832e-16
1216.17 6.1895e-16
1224.6 1.3233e-15
1235.93 2.1021e-15
1244.5 2.3478e-15
1256.01 2.2473e-15
1264.72 1.9127e-15
1276.42 2.5743e-15
1285.27 2.7331e-15
1294.18 2.107e-15
1306.15 2.0973e-15
1315.21 2.7331e-15
1324.32 2.6221e-15
1333.5 2.2996e-15
1345.84 2.8422e-15
1355.17 2.7647e-15
1364.56 2.4528e-15
1374.02 2.6221e-15
1383.55 2.677e-15
1396.35 2.337e-15
1406.03 2.4584e-15
1415.77 2.5099e-15
1425.59 2.6221e-15
1435.47 2.6161e-15
1442.09 2.7968e-15
1445.42 2.8553e-15
1455.44 2.7839e-15
1465.53 2.5624e-15
1475.69 2.5802e-15
1485.91 2.6525e-15
1496.21 2.7268e-15
1506.59 2.5802e-15
1513.54 2.2785e-15
1517.03 2.4698e-15
1524.03 2.3969e-15
1534.6 2.0733e-15
1545.23 2.337e-15
1555.94 2.2113e-15
1566.73 2.2628e-15
1573.96 2.4359e-15
1584.87 2.5862e-15
1595.86 2.6586e-15
1603.22 2.6282e-15
1614.34 2.6586e-15
1625.53 2.5099e-15
1636.79 2.708e-15
1644.35 2.7711e-15
1655.75 2.5507e-15
1663.39 2.8291e-15
1671.07 2.5041e-15
1678.78 2.8553e-15
1686.53 3.0106e-15
1694.31 2.8291e-15
1706.06 2.7205e-15
1713.93 2.5743e-15
1725.81 2.5802e-15
1733.78 2.7839e-15
1745.8 2.7268e-15
1753.86 2.9421e-15
1766.01 2.6894e-15
1774.16 2.7775e-15
1786.46 2.8488e-15
1794.71 3.0807e-15
1802.99 3.0666e-15
1815.49 2.8226e-15
1823.87 2.9017e-15
1836.51 2.7903e-15
1844.99 2.5566e-15
1853.51 2.5802e-15
1866.35 2.6832e-15
1874.97 2.9489e-15
1883.62 2.708e-15
1896.68 2.6161e-15
1905.43 2.7903e-15
1914.23 2.6894e-15
1923.06 2.6464e-15
1936.39 2.7205e-15
1945.33 2.8884e-15
1954.31 2.7143e-15
1967.86 3.0106e-15
1976.94 3.1021e-15
1986.07 2.9421e-15
1995.23 2.8685e-15
2004.44 2.9693e-15
2013.7 2.8685e-15
2022.99 3.0106e-15
2037.01 2.8751e-15
2046.42 3.0176e-15
2055.86 2.8884e-15
2065.35 2.9084e-15
2074.88 3.138e-15
2079.67 3.0666e-15
2084.46 3.2334e-15
2094.08 3.0525e-15
2103.75 3.0666e-15
2113.46 3.1308e-15
2123.21 3.1598e-15
2133.01 2.9286e-15
2142.86 3.0666e-15
2152.75 3.1964e-15
2162.69 3.0807e-15
2172.67 3.0737e-15
2182.7 3.0737e-15
2192.77 3.2259e-15
2202.9 3.138e-15
2213.06 2.9421e-15
2223.28 2.8817e-15
2233.54 3.1598e-15
2243.85 3.0245e-15
2254.21 2.8422e-15
2264.61 2.9103e-15
2275.06 3.0296e-15
2285.57 3.183e-15
2296.12 2.9805e-15
2306.71 3.0461e-15
2317.36 2.8788e-15
2322.7 2.241e-15
2333.42 2.6175e-15
2344.2 2.4909e-15
2355.02 2.8172e-15
2365.89 2.502e-15
2376.81 2.6348e-15
2382.29 2.3822e-15
2393.28 2.5849e-15
2404.33 2.4884e-15
2415.43 2.5905e-15
2426.57 2.8765e-15
2437.78 2.7819e-15
2443.39 2.9962e-15
2454.67 2.9857e-15
2466.0 2.9345e-15
2477.39 2.8055e-15
2483.1 2.7942e-15
2494.56 2.6775e-15
2506.07 3.1133e-15
2511.85 2.591e-15
2517.64 2.6285e-15
2523.45 2.5407e-15
2535.09 2.6634e-15
2546.79 2.6542e-15
2552.66 3.0073e-15
2564.45 2.8488e-15
2576.28 3.0844e-15
2582.22 3.0159e-15
2594.14 2.9506e-15
2606.12 2.821e-15
2612.12 2.7648e-15
2624.18 2.9934e-15
2636.29 3.3164e-15
2642.37 3.7837e-15
2654.57 4.106e-15
2666.82 3.4509e-15
2672.97 3.7084e-15
2685.31 3.7992e-15
2697.7 3.477e-15
2703.92 3.7193e-15
2716.4 3.365e-15
2722.66 3.2979e-15
2735.23 3.5625e-15
2747.85 2.8594e-15
2754.19 3.0517e-15
2766.9 3.2965e-15
2773.28 3.494e-15
2786.08 3.075e-15
2792.5 2.3394e-15
2805.39 2.5447e-15
2811.86 3.4348e-15
2824.84 3.9123e-15
2837.88 3.8016e-15
2844.42 3.5828e-15
2857.55 3.1898e-15
2864.14 4.0182e-15
2877.36 4.2225e-15
2883.99 4.0911e-15
2897.3 4.2304e-15
2910.67 4.8969e-15
2930.85 4.6104e-15
2951.17 4.5139e-15
2971.62 4.7248e-15
2992.22 4.7776e-15
3012.96 4.9209e-15
3026.87 4.9842e-15
3047.85 5.075e-15
3068.98 5.2153e-15
3090.25 5.2982e-15
3111.67 5.4825e-15
3133.24 5.3683e-15
3147.7 5.4002e-15
3169.52 5.5882e-15
3191.49 5.1659e-15
3213.62 5.5464e-15
3228.45 5.0769e-15
3250.83 5.8949e-15
3273.36 6.3879e-15
3288.47 6.338e-15
3311.26 6.3073e-15
3318.9 6.3554e-15
3326.55 6.3014e-15
3334.22 6.8507e-15
3341.9 6.3979e-15
3349.61 6.9877e-15
3357.33 6.7396e-15
3365.07 5.7801e-15
3372.82 5.6655e-15
3380.6 6.7381e-15
3388.39 6.8052e-15
3396.2 6.429e-15
3404.03 7.0218e-15
3411.88 6.3497e-15
3419.75 6.4872e-15
3427.63 6.6583e-15
3435.53 6.913e-15
3443.45 5.97e-15
3451.39 6.8751e-15
3459.34 6.7233e-15
3467.32 6.6511e-15
3475.31 6.8423e-15
3483.32 6.7687e-15
3491.35 6.8362e-15
3499.4 6.1253e-15
3507.47 7.1029e-15
3515.55 6.4825e-15
3523.66 6.9671e-15
3531.78 6.8765e-15
3539.92 7.3397e-15
3548.08 7.6558e-15
3556.26 7.2161e-15
3564.46 7.4065e-15
3572.68 6.3963e-15
3580.91 6.6564e-15
3589.17 5.5534e-15
3597.44 6.9964e-15
3605.74 7.1316e-15
3611.02 5.5517e-15
3613.72 7.5153e-15
3616.42 6.808e-15
3619.12 7.0752e-15
3621.82 7.0633e-15
3624.52 6.4722e-15
3627.22 5.5356e-15
3629.92 5.7414e-15
3632.62 5.3809e-15
3635.32 5.1611e-15
3638.02 5.5629e-15
3640.72 8.4924e-15
3643.42 8.4657e-15
3646.12 7.6776e-15
3648.82 7.3781e-15
3651.52 7.5112e-15
3654.22 6.9444e-15
3656.92 6.8869e-15
3659.62 6.7923e-15
3662.32 5.6808e-15
3665.02 6.3261e-15
3667.72 6.6215e-15
3670.42 7.9756e-15
3673.12 8.6432e-15
3675.82 5.6702e-15
3678.52 7.48e-15
3681.22 8.7522e-15
3683.92 8.0397e-15
3686.62 6.9085e-15
3689.32 6.7657e-15
3692.02 6.5957e-15
3694.72 8.2851e-15
3697.42 9.3607e-15
3700.12 8.1805e-15
3702.82 7.4578e-15
3705.52 8.6162e-15
3708.21 6.7241e-15
3710.91 7.4066e-15
3713.61 8.3148e-15
3716.31 7.7037e-15
3719.01 8.0816e-15
3721.71 8.4868e-15
3724.41 9.9848e-15
3727.11 1.3103e-14
3729.81 1.5736e-14
3732.51 1.5091e-14
3735.21 1.2873e-14
3737.91 9.797e-15
3740.61 8.0511e-15
3743.31 6.9634e-15
3746.01 6.6706e-15
3748.71 6.2465e-15
3751.41 7.5604e-15
3754.11 7.2983e-15
3756.81 7.696e-15
3759.51 8.2685e-15
3762.21 6.7989e-15
3764.91 8.988e-15
3767.61 8.0339e-15
3770.31 7.0561e-15
3773.01 6.4893e-15
3775.71 7.5515e-15
3778.41 9.1809e-15
3781.11 9.4807e-15
3783.81 9.1991e-15
3786.51 9.0846e-15
3789.21 7.7028e-15
3791.91 9.0863e-15
3794.61 8.7951e-15
3797.31 7.7822e-15
3800.01 7.1682e-15
3802.71 7.2787e-15
3805.41 7.8609e-15
3808.11 9.193e-15
3810.81 9.2286e-15
3813.51 9.8215e-15
3816.21 8.7055e-15
3818.91 9.8672e-15
3821.61 9.6805e-15
3824.3 8.9173e-15
3827.0 8.1318e-15
3829.7 8.5483e-15
3832.4 7.7033e-15
3835.1 6.942e-15
3837.8 5.7641e-15
3840.5 6.3918e-15
3843.2 7.2077e-15
3845.9 8.275e-15
3848.6 9.3915e-15
3851.3 9.6714e-15
3854.0 9.5163e-15
3856.7 1.0204e-14
3859.4 9.5e-15
3862.1 9.9425e-15
3864.8 9.9612e-15
3867.5 9.7432e-15
3870.2 1.0676e-14
3872.9 1.0709e-14
3875.6 1.0409e-14
3878.3 1.0181e-14
3881.0 8.6592e-15
3883.7 8.112e-15
3886.4 7.5976e-15
3889.1 7.5632e-15
3891.8 7.4691e-15
3894.5 8.203e-15
3897.2 8.7927e-15
3899.9 9.6898e-15
3902.6 1.0201e-14
3905.3 1.0097e-14
3908.0 1.0916e-14
3910.7 1.0797e-14
3913.4 1.0114e-14
3916.1 1.0152e-14
3918.8 1.0715e-14
3921.5 1.0536e-14
3924.2 1.1247e-14
3926.9 9.9902e-15
3929.6 9.3663e-15
3932.3 7.9298e-15
3935.0 7.0348e-15
3937.7 7.8124e-15
3940.39 7.2782e-15
3943.09 7.2415e-15
3945.79 9.5633e-15
3948.49 8.8487e-15
3951.19 1.0595e-14
3953.89 1.0321e-14
3956.59 1.0401e-14
3959.29 9.6938e-15
3961.99 9.8477e-15
3964.69 8.7041e-15
3967.39 7.5322e-15
3970.09 7.0357e-15
3972.79 7.5743e-15
3975.49 6.6771e-15
3978.19 8.5591e-15
3980.89 9.0986e-15
3983.59 1.04e-14
3986.29 1.1451e-14
3988.99 1.115e-14
3991.69 1.0905e-14
3994.39 1.209e-14
3997.09 1.2412e-14
3999.79 1.1735e-14
4002.49 1.1749e-14
4005.19 1.2583e-14
4007.89 1.3942e-14
4010.59 1.3406e-14
4013.29 1.2326e-14
4015.99 1.3172e-14
4018.69 1.3544e-14
4021.39 1.3802e-14
4024.09 1.447e-14
4026.79 1.4229e-14
4029.49 1.4313e-14
4032.19 1.3746e-14
4034.89 1.3451e-14
4037.59 1.3267e-14
4040.29 1.3632e-14
4042.99 1.3157e-14
4045.69 1.3318e-14
4048.39 1.3141e-14
4051.09 1.3257e-14
4053.79 1.2552e-14
4056.49 1.2764e-14
4059.18 1.3695e-14
4061.88 1.3216e-14
4064.58 1.2446e-14
4067.28 1.254e-14
4069.98 1.2442e-14
4072.68 1.2572e-14
4075.38 1.2663e-14
4078.08 1.2449e-14
4080.78 1.3204e-14
4083.48 1.3513e-14
4086.18 1.4137e-14
4088.88 1.2503e-14
4091.58 1.3888e-14
4094.28 1.2748e-14
4096.98 1.1757e-14
4099.68 1.1536e-14
4102.38 1.1072e-14
4105.08 9.8245e-15
4107.78 1.0296e-14
4110.48 1.1323e-14
4113.18 1.162e-14
4115.88 1.2347e-14
4118.58 1.1681e-14
4121.28 1.2463e-14
4123.98 1.3292e-14
4126.68 1.2702e-14
4129.38 1.3195e-14
4132.08 1.1965e-14
4134.78 1.2025e-14
4137.48 1.3186e-14
4140.18 1.3028e-14
4142.88 1.2412e-14
4145.58 1.2778e-14
4148.28 1.268e-14
4150.98 1.2734e-14
4153.68 1.2775e-14
4156.38 1.3402e-14
4159.08 1.3012e-14
4161.78 1.2938e-14
4164.48 1.3597e-14
4167.18 1.3543e-14
4169.88 1.3111e-14
4172.58 1.3238e-14
4175.27 1.2536e-14
4177.97 1.1272e-14
4180.67 1.1005e-14
4183.37 1.2061e-14
4186.07 1.2492e-14
4188.77 1.2744e-14
4191.47 1.2748e-14
4194.17 1.1955e-14
4196.87 1.2338e-14
4199.57 1.3022e-14
4202.27 1.2826e-14
4204.97 1.2586e-14
4207.67 1.2808e-14
4210.37 1.3149e-14
4213.07 1.3526e-14
4215.77 1.339e-14
4218.47 1.3015e-14
4221.17 1.3612e-14
4223.87 1.3417e-14
4226.57 1.2618e-14
4229.27 1.2898e-14
4231.97 1.2653e-14
4234.67 1.1828e-14
4237.37 1.3121e-14
4240.07 1.2863e-14
4242.77 1.2713e-14
4245.47 1.3325e-14
4248.17 1.3144e-14
4250.87 1.3657e-14
4253.57 1.35e-14
4256.27 1.3479e-14
4258.97 1.3346e-14
4261.67 1.3125e-14
4264.37 1.3429e-14
4267.07 1.3702e-14
4269.77 1.3624e-14
4272.47 1.3482e-14
4275.17 1.277e-14
4277.87 1.2601e-14
4280.57 1.2806e-14
4283.27 1.3344e-14
4285.97 1.3378e-14
4288.67 1.2769e-14
4291.36 1.2577e-14
4294.06 1.2335e-14
4296.76 1.2179e-14
4299.46 1.1664e-14
4302.16 1.1519e-14
4304.86 1.1202e-14
4307.56 1.1061e-14
4310.26 1.1187e-14
4312.96 1.1617e-14
4315.66 1.1903e-14
4318.36 1.2557e-14
4321.06 1.2868e-14
4323.76 1.2553e-14
4326.46 1.2373e-14
4329.16 1.2783e-14
4331.86 1.2614e-14
4334.56 1.2257e-14
4337.26 1.2051e-14
4339.96 1.2233e-14
4342.66 1.2386e-14
4345.36 1.1974e-14
4348.06 1.2617e-14
4350.76 1.2304e-14
4353.46 1.2704e-14
4356.16 1.3062e-14
4358.86 1.3625e-14
4361.56 1.3391e-14
4364.26 1.4177e-14
4366.96 1.4331e-14
4369.66 1.4749e-14
4372.36 1.4506e-14
4375.06 1.415e-14
4377.76 1.3472e-14
4380.46 1.3394e-14
4383.16 1.4255e-14
4385.86 1.3712e-14
4388.56 1.3194e-14
4391.26 1.3217e-14
4393.96 1.3713e-14
4396.66 1.3818e-14
4399.36 1.3927e-14
4402.06 1.332e-14
4404.76 1.3158e-14
4407.45 1.3172e-14
4410.15 1.311e-14
4412.85 1.3602e-14
4415.55 1.3911e-14
4418.25 1.421e-14
4420.95 1.4133e-14
4423.65 1.4218e-14
4426.35 1.4328e-14
4429.05 1.4346e-14
4431.75 1.4058e-14
4434.45 1.446e-14
4437.15 1.4714e-14
4439.85 1.4059e-14
4442.55 1.4603e-14
4445.25 1.4522e-14
4447.95 1.5175e-14
4450.65 1.5473e-14
4453.35 1.489e-14
4456.05 1.5021e-14
4458.75 1.4827e-14
4461.45 1.353e-14
4464.15 1.4631e-14
4466.85 1.4283e-14
4469.55 1.3795e-14
4472.25 1.4549e-14
4474.95 1.5493e-14
4477.65 1.5378e-14
4480.35 1.564e-14
4483.05 1.5596e-14
4485.75 1.4997e-14
4488.45 1.4659e-14
4491.15 1.4657e-14
4493.85 1.4783e-14
4496.55 1.4884e-14
4499.25 1.5182e-14
4501.95 1.5288e-14
4504.65 1.5711e-14
4507.35 1.5695e-14
4510.05 1.6374e-14
4512.75 1.5752e-14
4515.45 1.5715e-14
4518.15 1.5376e-14
4520.85 1.534e-14
4523.54 1.582e-14
4526.24 1.4994e-14
4528.94 1.526e-14
4531.64 1.4954e-14
4534.34 1.4506e-14
4537.04 1.3993e-14
4539.74 1.4698e-14
4542.44 1.638e-14
4545.14 1.5466e-14
4547.84 1.4964e-14
4550.54 1.4837e-14
4553.24 1.5801e-14
4555.94 1.4749e-14
4558.64 1.5221e-14
4561.34 1.5506e-14
4564.04 1.6485e-14
4566.74 1.6075e-14
4569.44 1.5993e-14
4572.14 1.6159e-14
4574.84 1.6429e-14
4577.54 1.5648e-14
4580.24 1.6334e-14
4582.94 1.542e-14
4585.64 1.5595e-14
4588.34 1.5742e-14
4591.04 1.525e-14
4593.74 1.4956e-14
4596.44 1.5758e-14
4599.14 1.5474e-14
4601.84 1.4756e-14
4604.54 1.4952e-14
4607.24 1.4838e-14
4609.94 1.4935e-14
4612.64 1.633e-14
4615.34 1.6325e-14
4618.04 1.5744e-14
4620.74 1.6752e-14
4623.44 1.5968e-14
4626.14 1.5841e-14
4628.84 1.6798e-14
4631.54 1.6192e-14
4634.24 1.6516e-14
4636.94 1.6147e-14
4639.63 1.4907e-14
4642.33 1.5284e-14
4645.03 1.6124e-14
4647.73 1.3813e-14
4650.43 1.5008e-14
4653.13 1.5518e-14
4655.83 1.5502e-14
4658.53 1.5836e-14
4661.23 1.5686e-14
4663.93 1.5736e-14
4666.63 1.6103e-14
4669.33 1.5605e-14
4672.03 1.4387e-14
4674.73 1.4721e-14
4677.43 1.5078e-14
4680.13 1.5315e-14
4682.83 1.5789e-14
4685.53 1.5627e-14
4688.23 1.5923e-14
4690.93 1.6168e-14
4693.63 1.6341e-14
4696.33 1.5718e-14
4699.03 1.4954e-14
4701.73 1.5079e-14
4704.43 1.5595e-14
4707.13 1.4705e-14
4709.83 1.5082e-14
4712.53 1.5709e-14
4715.23 1.5429e-14
4717.93 1.5958e-14
4720.63 1.605e-14
4723.33 1.6296e-14
4726.03 1.5758e-14
4728.73 1.5872e-14
4731.43 1.5428e-14
4734.13 1.5853e-14
4736.83 1.5239e-14
4739.53 1.5592e-14
4742.23 1.6299e-14
4744.93 1.5997e-14
4747.63 1.6299e-14
4750.33 1.6775e-14
4753.03 1.6523e-14
4755.72 1.6029e-14
4758.42 1.6025e-14
4761.12 1.5561e-14
4763.82 1.6172e-14
4766.52 1.5395e-14
4769.22 1.5554e-14
4771.92 1.5393e-14
4774.62 1.5871e-14
4777.32 1.5926e-14
4780.02 1.5999e-14
4782.72 1.5897e-14
4785.42 1.6543e-14
4788.12 1.6033e-14
4790.82 1.5722e-14
4793.52 1.6648e-14
4796.22 1.6358e-14
4798.92 1.6231e-14
4801.62 1.6273e-14
4804.32 1.5904e-14
4807.02 1.6121e-14
4809.72 1.7067e-14
4812.42 1.5991e-14
4815.12 1.5764e-14
4817.82 1.7177e-14
4820.52 1.6215e-14
4823.22 1.6475e-14
4825.92 1.5967e-14
4828.62 1.5999e-14
4831.32 1.5941e-14
4834.02 1.5734e-14
4836.72 1.5669e-14
4839.42 1.6142e-14
4842.12 1.5511e-14
4844.82 1.4981e-14
4847.52 1.5368e-14
4850.22 1.4856e-14
4852.92 1.471e-14
4855.62 1.5118e-14
4858.32 1.4848e-14
4861.02 1.4754e-14
4863.72 1.5493e-14
4866.42 1.4854e-14
4869.12 1.4133e-14
4871.81 1.4338e-14
4874.51 1.4657e-14
4877.21 1.4362e-14
4879.91 1.4259e-14
4882.61 1.5101e-14
4885.31 1.5278e-14
4888.01 1.5381e-14
4890.71 1.514e-14
4893.41 1.5361e-14
4896.11 1.5377e-14
4898.81 1.6378e-14
4901.51 1.6124e-14
4904.21 1.6625e-14
4906.91 1.6374e-14
4909.61 1.6106e-14
4912.31 1.598e-14
4915.01 1.6193e-14
4917.71 1.6015e-14
4920.41 1.5179e-14
4923.11 1.5005e-14
4925.81 1.5501e-14
4928.51 1.543e-14
4931.21 1.5505e-14
4933.91 1.5038e-14
4936.61 1.5715e-14
4939.31 1.5977e-14
4942.01 1.5654e-14
4944.71 1.5387e-14
4947.41 1.6013e-14
4950.11 1.6747e-14
4952.81 1.6802e-14
4955.51 1.6304e-14
4958.21 1.6675e-14
4960.91 1.6616e-14
4963.61 1.6168e-14
4966.31 1.643e-14
4969.01 1.6338e-14
4971.71 1.6559e-14
4974.41 1.6042e-14
4977.11 1.6059e-14
4979.81 1.6376e-14
4982.51 1.5534e-14
4985.21 1.512e-14
4987.91 1.5188e-14
4990.6 1.496e-14
4993.3 1.5633e-14
4996.0 1.5541e-14
4998.7 1.599e-14
5001.4 1.5891e-14
5004.1 1.6893e-14
5006.8 1.7683e-14
5009.5 1.8377e-14
5012.2 1.8052e-14
5014.9 1.6716e-14
5017.6 1.5403e-14
5020.3 1.5061e-14
5023.0 1.5049e-14
5025.7 1.5798e-14
5028.4 1.5817e-14
5031.1 1.5494e-14
5033.8 1.5652e-14
5036.5 1.5679e-14
5039.2 1.5721e-14
5041.9 1.5597e-14
5044.6 1.5076e-14
5047.3 1.4995e-14
5050.0 1.4929e-14
5052.7 1.4815e-14
5055.4 1.5963e-14
5058.1 1.6137e-14
5060.8 1.5703e-14
5063.5 1.5961e-14
5066.2 1.5977e-14
5068.9 1.6039e-14
5071.6 1.538e-14
5074.3 1.5417e-14
5077.0 1.5606e-14
5079.7 1.5387e-14
5082.4 1.5716e-14
5085.1 1.5872e-14
5087.8 1.5738e-14
5090.5 1.5254e-14
5093.2 1.5362e-14
5095.9 1.5495e-14
5098.6 1.5999e-14
5101.3 1.597e-14
5104.0 1.5748e-14
5106.69 1.5159e-14
5109.39 1.5505e-14
5112.09 1.5408e-14
5114.79 1.5571e-14
5117.49 1.6283e-14
5120.19 1.6139e-14
5122.89 1.5438e-14
5125.59 1.5723e-14
5128.29 1.4996e-14
5130.99 1.4801e-14
5133.69 1.4874e-14
5136.39 1.5155e-14
5139.09 1.5455e-14
5141.79 1.5255e-14
5144.49 1.5182e-14
5147.19 1.5592e-14
5149.89 1.5049e-14
5152.59 1.4976e-14
5155.29 1.5068e-14
5157.99 1.5336e-14
5160.69 1.5475e-14
5163.39 1.5758e-14
5166.09 1.4976e-14
5168.79 1.4252e-14
5171.49 1.367e-14
5174.19 1.3826e-14
5176.89 1.4004e-14
5179.59 1.4496e-14
5182.29 1.4758e-14
5184.99 1.4466e-14
5187.69 1.4824e-14
5190.39 1.4741e-14
5193.09 1.4338e-14
5195.79 1.4512e-14
5198.49 1.5005e-14
5201.19 1.5969e-14
5203.89 1.5666e-14
5206.59 1.5868e-14
5209.29 1.5891e-14
5211.99 1.5311e-14
5214.69 1.521e-14
5217.39 1.5765e-14
5220.09 1.5982e-14
5222.78 1.6034e-14
5225.48 1.5851e-14
5228.18 1.6068e-14
5230.88 1.5938e-14
5233.58 1.5754e-14
5236.28 1.6187e-14
5238.98 1.669e-14
5241.68 1.6753e-14
5244.38 1.7026e-14
5247.08 1.6943e-14
5249.78 1.6411e-14
5252.48 1.6102e-14
5255.18 1.6302e-14
5257.88 1.6201e-14
5260.58 1.6201e-14
5263.28 1.5664e-14
5265.98 1.5151e-14
5268.68 1.4666e-14
5271.38 1.5166e-14
5274.08 1.5124e-14
5276.78 1.5665e-14
5279.48 1.6097e-14
5282.18 1.6436e-14
5284.88 1.6355e-14
5287.58 1.6347e-14
5290.28 1.7836e-14
5292.98 1.7337e-14
5295.68 1.7075e-14
5298.38 1.6718e-14
5301.08 1.5995e-14
5303.78 1.7092e-14
5306.48 1.7226e-14
5309.18 1.7248e-14
5311.88 1.7263e-14
5314.58 1.7229e-14
5317.28 1.6858e-14
5319.98 1.6397e-14
5322.68 1.6546e-14
5325.38 1.6391e-14
5328.08 1.5521e-14
5330.78 1.5691e-14
5333.48 1.6118e-14
5336.18 1.6356e-14
5338.87 1.6747e-14
5341.57 1.6478e-14
5344.27 1.6702e-14
5346.97 1.6319e-14
5349.67 1.7111e-14
5352.37 1.665e-14
5355.07 1.6876e-14
5357.77 1.7405e-14
5360.47 1.7573e-14
5363.17 1.7524e-14
5365.87 1.6881e-14
5368.57 1.609e-14
5371.27 1.6698e-14
5373.97 1.5712e-14
5376.67 1.6818e-14
5379.37 1.7559e-14
5382.07 1.6836e-14
5384.77 1.7043e-14
5387.47 1.7205e-14
5390.17 1.754e-14
5392.87 1.6612e-14
5395.57 1.6742e-14
5398.27 1.6066e-14
5400.97 1.5952e-14
5403.67 1.5669e-14
5406.37 1.5853e-14
5409.07 1.6091e-14
5411.77 1.6141e-14
5414.47 1.6801e-14
5417.17 1.7075e-14
5419.87 1.7031e-14
5422.57 1.7234e-14
5425.27 1.6603e-14
5427.97 1.7199e-14
5430.67 1.6594e-14
5433.37 1.681e-14
5436.07 1.6777e-14
5438.77 1.6797e-14
5441.47 1.6229e-14
5444.17 1.6837e-14
5446.87 1.6749e-14
5449.57 1.6609e-14
5452.27 1.6891e-14
5454.96 1.7456e-14
5457.66 1.6898e-14
5460.36 1.636e-14
5463.06 1.6638e-14
5465.76 1.6795e-14
5468.46 1.718e-14
5471.16 1.654e-14
5473.86 1.7382e-14
5476.56 1.6161e-14
5479.26 1.592e-14
5481.96 1.5195e-14
5484.66 1.6555e-14
5487.36 1.633e-14
5490.06 1.7363e-14
5492.76 1.619e-14
5495.46 1.6392e-14
5498.16 1.6089e-14
5500.86 1.6503e-14
5503.56 1.6573e-14
5506.26 1.676e-14
5508.96 1.6565e-14
5511.66 1.6272e-14
5514.36 1.6244e-14
5517.06 1.755e-14
5519.76 1.7322e-14
5522.46 1.7615e-14
5525.16 1.7435e-14
5527.86 1.7072e-14
5530.56 1.7004e-14
5533.26 1.688e-14
5535.96 1.7117e-14
5538.66 1.7216e-14
5541.36 1.8375e-14
5544.06 1.6725e-14
5546.76 1.6895e-14
5549.46 1.7147e-14
5552.16 1.7219e-14
5554.86 1.7524e-14
5557.56 1.7841e-14
5560.26 1.7001e-14
5562.96 1.7685e-14
5565.66 1.6669e-14
5568.36 1.6728e-14
5571.05 1.6785e-14
5573.75 1.7407e-14
5576.45 1.7158e-14
5579.15 1.6968e-14
5581.85 1.6469e-14
5584.55 1.7389e-14
5587.25 1.669e-14
5589.95 1.6575e-14
5592.65 1.5407e-14
5595.35 1.6309e-14
5598.05 1.588e-14
5600.75 1.7241e-14
5603.45 1.6513e-14
5606.15 1.7421e-14
5608.85 1.6568e-14
5611.55 1.8179e-14
5614.25 1.7212e-14
5616.95 1.7459e-14
5619.65 1.7235e-14
5622.35 1.7496e-14
5625.05 1.6751e-14
5627.75 1.7561e-14
5630.45 1.6793e-14
5633.15 1.6998e-14
5635.85 1.6871e-14
5638.55 1.6747e-14
5641.25 1.724e-14
5643.95 1.7734e-14
5646.65 1.7625e-14
5649.35 1.7369e-14
5652.05 1.6897e-14
5654.75 1.8151e-14
5657.45 1.8189e-14
5660.15 1.783e-14
5662.85 1.7626e-14
5665.55 1.7627e-14
5668.25 1.7044e-14
5670.95 1.8088e-14
5673.65 1.7866e-14
5676.35 1.7485e-14
5679.05 1.7517e-14
5681.75 1.761e-14
5684.45 1.7366e-14
5687.14 1.7244e-14
5689.84 1.7752e-14
5692.54 1.758e-14
5695.24 1.7807e-14
5697.94 1.7883e-14
5700.64 1.7091e-14
5703.34 1.7409e-14
5706.04 1.7322e-14
5708.74 1.6344e-14
5711.44 1.7062e-14
5714.14 1.6962e-14
5716.84 1.7153e-14
5719.54 1.721e-14
5722.24 1.7747e-14
5724.94 1.7857e-14
5727.64 1.7464e-14
5730.34 1.6849e-14
5733.04 1.743e-14
5735.74 1.7272e-14
5738.44 1.7467e-14
5741.14 1.7599e-14
5743.84 1.8043e-14
5746.54 1.8545e-14
5749.24 1.8166e-14
5751.94 1.8132e-14
5754.64 1.6816e-14
5757.34 1.7172e-14
5760.04 1.7899e-14
5762.74 1.8064e-14
5765.44 1.8471e-14
5768.14 1.704e-14
5770.84 1.7596e-14
5773.54 1.7971e-14
5776.24 1.8126e-14
5778.94 1.7341e-14
5781.64 1.7454e-14
5784.34 1.6705e-14
5787.04 1.6924e-14
5789.74 1.6342e-14
5792.44 1.6763e-14
5795.14 1.7225e-14
5797.84 1.8073e-14
5800.54 1.7895e-14
5803.23 1.6987e-14
5805.93 1.7853e-14
5808.63 1.8302e-14
5811.33 1.7388e-14
5814.03 1.7306e-14
5816.73 1.7192e-14
5819.43 1.7132e-14
5822.13 1.729e-14
5824.83 1.7761e-14
5827.53 1.8122e-14
5830.23 1.7743e-14
5832.93 1.7712e-14
5835.63 1.7761e-14
5838.33 1.7418e-14
5841.03 1.7405e-14
5843.73 1.7486e-14
5846.43 1.77e-14
5849.13 1.7787e-14
5851.83 1.7722e-14
5854.53 1.6984e-14
5857.23 1.6653e-14
5859.93 1.6908e-14
5862.63 1.7392e-14
5865.33 1.6611e-14
5868.03 1.75e-14
5870.73 1.7913e-14
5873.43 1.7909e-14
5876.13 1.792e-14
5878.83 1.6903e-14
5881.53 1.7641e-14
5884.23 1.7328e-14
5886.93 1.6738e-14
5889.63 1.6115e-14
5892.33 1.5358e-14
5895.03 1.4062e-14
5897.73 1.4805e-14
5900.43 1.5084e-14
5903.13 1.5486e-14
5905.83 1.5771e-14
5908.53 1.7575e-14
5911.23 1.635e-14
5913.93 1.6547e-14
5916.63 1.7378e-14
5919.32 1.709e-14
5922.02 1.6767e-14
5924.72 1.7616e-14
5927.42 1.7787e-14
5930.12 1.789e-14
5932.82 1.6555e-14
5935.52 1.6993e-14
5938.22 1.6878e-14
5940.92 1.7106e-14
5943.62 1.6991e-14
5946.32 1.732e-14
5949.02 1.7528e-14
5951.72 1.7936e-14
5954.42 1.6621e-14
5957.12 1.7158e-14
5959.82 1.721e-14
5962.52 1.7714e-14
5965.22 1.7613e-14
5967.92 1.7412e-14
5970.62 1.7865e-14
5973.32 1.7459e-14
5976.02 1.731e-14
5978.72 1.6987e-14
5981.42 1.6819e-14
5984.12 1.7687e-14
5986.82 1.8115e-14
5989.52 1.7355e-14
5992.22 1.7091e-14
5994.92 1.687e-14
5997.62 1.7202e-14
6000.32 1.7676e-14
6003.02 1.7031e-14
6005.72 1.6983e-14
6008.42 1.7071e-14
6011.12 1.7457e-14
6013.82 1.7015e-14
6016.52 1.7413e-14
6019.22 1.6899e-14
6021.92 1.6808e-14
6024.62 1.7248e-14
6027.32 1.7694e-14
6030.02 1.8403e-14
6032.72 1.7836e-14
6035.42 1.742e-14
6038.11 1.7952e-14
6040.81 1.8069e-14
6043.51 1.7788e-14
6046.21 1.8124e-14
6048.91 1.7548e-14
6051.61 1.6891e-14
6054.31 1.7518e-14
6057.01 1.825e-14
6059.71 1.8195e-14
6062.41 1.7758e-14
6065.11 1.7389e-14
6067.81 1.7618e-14
6070.51 1.8015e-14
6073.21 1.7705e-14
6075.91 1.7764e-14
6078.61 1.7878e-14
6081.31 1.7708e-14
6084.01 1.8385e-14
6086.71 1.7396e-14
6089.41 1.7566e-14
6092.11 1.7434e-14
6094.81 1.716e-14
6097.51 1.7518e-14
6100.21 1.7697e-14
6102.91 1.7783e-14
6105.61 1.7373e-14
6108.31 1.7268e-14
6111.01 1.735e-14
6113.71 1.6771e-14
6116.41 1.7075e-14
6119.11 1.7035e-14
6121.81 1.7164e-14
6124.51 1.7336e-14
6127.21 1.7543e-14
6129.91 1.808e-14
6132.61 1.7795e-14
6135.31 1.7185e-14
6138.01 1.6681e-14
6140.71 1.6571e-14
6143.41 1.7457e-14
6146.11 1.701e-14
6148.81 1.6571e-14
6151.51 1.6619e-14
6154.2 1.7268e-14
6156.9 1.6971e-14
6159.6 1.6843e-14
6162.3 1.5883e-14
6165.0 1.6002e-14
6167.7 1.6343e-14
6170.4 1.6477e-14
6173.1 1.6184e-14
6175.8 1.705e-14
6178.5 1.6626e-14
6181.2 1.7287e-14
6183.9 1.6948e-14
6186.6 1.644e-14
6189.3 1.7287e-14
6192.0 1.6579e-14
6194.7 1.6301e-14
6197.4 1.7031e-14
6200.1 1.7402e-14
6202.8 1.8117e-14
6205.5 1.7175e-14
6208.2 1.8155e-14
6210.9 1.702e-14
6213.6 1.671e-14
6216.3 1.7326e-14
6219.0 1.6434e-14
6221.7 1.6139e-14
6224.4 1.6946e-14
6227.1 1.695e-14
6229.8 1.6731e-14
6232.5 1.7091e-14
6235.2 1.6878e-14
6237.9 1.6387e-14
6240.6 1.5509e-14
6243.3 1.6332e-14
6246.0 1.6421e-14
6248.7 1.7418e-14
6251.4 1.6722e-14
6254.1 1.6567e-14
6256.8 1.699e-14
6259.5 1.6848e-14
6262.2 1.6087e-14
6264.9 1.623e-14
6267.6 1.6831e-14
6270.29 1.6454e-14
6272.99 1.6656e-14
6275.69 1.6595e-14
6278.39 1.6313e-14
6281.09 1.6511e-14
6283.79 1.643e-14
6286.49 1.575e-14
6289.19 1.6365e-14
6291.89 1.691e-14
6294.59 1.6443e-14
6297.29 1.7549e-14
6299.99 1.7683e-14
6302.69 1.7957e-14
6305.39 1.7937e-14
6308.09 1.7714e-14
6310.79 1.7734e-14
6313.49 1.7193e-14
6316.19 1.655e-14
6318.89 1.6465e-14
6321.59 1.671e-14
6324.29 1.6951e-14
6326.99 1.6889e-14
6329.69 1.7331e-14
6332.39 1.7343e-14
6335.09 1.7341e-14
6337.79 1.7529e-14
6340.49 1.7129e-14
6343.19 1.681e-14
6345.89 1.686e-14
6348.59 1.7467e-14
6351.29 1.7488e-14
6353.99 1.7133e-14
6356.69 1.6588e-14
6359.39 1.6583e-14
6362.09 1.6839e-14
6364.79 1.6671e-14
6367.49 1.6688e-14
6370.19 1.69e-14
6372.89 1.6851e-14
6375.59 1.6932e-14
6378.29 1.74e-14
6380.99 1.8362e-14
6383.69 1.791e-14
6386.38 1.7785e-14
6389.08 1.6023e-14
6391.78 1.6369e-14
6394.48 1.6742e-14
6397.18 1.6692e-14
6399.88 1.7019e-14
6402.58 1.7348e-14
6405.28 1.7433e-14
6407.98 1.7106e-14
6410.68 1.7778e-14
6413.38 1.8305e-14
6416.08 1.7378e-14
6418.78 1.6861e-14
6421.48 1.62e-14
6424.18 1.7208e-14
6426.88 1.6759e-14
6429.58 1.6979e-14
6432.28 1.6788e-14
6434.98 1.7031e-14
6437.68 1.7202e-14
6440.38 1.6356e-14
6443.08 1.6939e-14
6445.78 1.6805e-14
6448.48 1.6921e-14
6451.18 1.5478e-14
6453.88 1.678e-14
6456.58 1.6625e-14
6459.28 1.6821e-14
6461.98 1.6917e-14
6464.68 1.7027e-14
6467.38 1.6537e-14
6470.08 1.7195e-14
6472.78 1.7026e-14
6475.48 1.7515e-14
6478.18 1.779e-14
6480.88 1.751e-14
6483.58 1.7587e-14
6486.28 1.7275e-14
6488.98 1.678e-14
6491.68 1.6798e-14
6494.38 1.7141e-14
6497.08 1.6782e-14
6499.78 1.5755e-14
6502.47 1.6758e-14
6505.17 1.6685e-14
6507.87 1.7286e-14
6510.57 1.76e-14
6513.27 1.7822e-14
6515.97 1.7305e-14
6518.67 1.7606e-14
6521.37 1.7047e-14
6524.07 1.7206e-14
6526.77 1.7407e-14
6529.47 1.6652e-14
6532.17 1.7285e-14
6534.87 1.7806e-14
6537.57 1.7649e-14
6540.27 1.7798e-14
6542.97 1.8182e-14
6545.67 1.9348e-14
6548.37 1.9776e-14
6551.07 2.0701e-14
6553.77 2.0427e-14
6556.47 2.1104e-14
6559.17 2.3641e-14
6561.87 2.6456e-14
6564.57 2.8953e-14
6567.27 2.8202e-14
6569.97 2.5994e-14
6572.67 2.3077e-14
6575.37 2.008e-14
6578.07 1.9724e-14
6580.77 2.212e-14
6583.47 2.5249e-14
6586.17 2.6364e-14
6588.87 2.5522e-14
6591.57 2.3411e-14
6594.27 2.0411e-14
6596.97 1.8808e-14
6599.67 1.7562e-14
6602.37 1.7004e-14
6605.07 1.7396e-14
6607.77 1.8055e-14
6610.47 1.6869e-14
6613.17 1.6451e-14
6615.87 1.7123e-14
6618.56 1.7828e-14
6621.26 1.69e-14
6623.96 1.7011e-14
6626.66 1.7495e-14
6629.36 1.703e-14
6632.06 1.7646e-14
6634.76 1.6675e-14
6637.46 1.6853e-14
6640.16 1.7406e-14
6642.86 1.8446e-14
6645.56 1.7571e-14
6648.26 1.7726e-14
6650.96 1.6305e-14
6653.66 1.7636e-14
6656.36 1.6916e-14
6659.06 1.701e-14
6661.76 1.6805e-14
6664.46 1.6621e-14
6667.16 1.6397e-14
6669.86 1.6435e-14
6672.56 1.6865e-14
6675.26 1.7132e-14
6677.96 1.7199e-14
6680.66 1.7238e-14
6683.36 1.6586e-14
6686.06 1.7634e-14
6688.76 1.743e-14
6691.46 1.7457e-14
6694.16 1.7579e-14
6696.86 1.7408e-14
6699.56 1.6829e-14
6702.26 1.7997e-14
6704.96 1.798e-14
6714.19 1.7091e-14
6729.67 1.6937e-14
6745.18 1.6706e-14
6760.73 1.6631e-14
6776.32 1.6709e-14
6791.94 1.652e-14
6807.6 1.7063e-14
6823.29 1.7104e-14
6839.02 1.7185e-14
6854.79 1.7187e-14
6870.59 1.6415e-14
6886.42 1.6954e-14
6902.3 1.6956e-14
6918.21 1.7036e-14
6934.16 1.6727e-14
6950.14 1.7397e-14
6966.17 1.7239e-14
6982.22 1.6965e-14
6998.32 1.7362e-14
7014.45 1.7086e-14
7030.62 1.6699e-14
7046.83 1.7328e-14
7063.08 1.6896e-14
7079.36 1.7094e-14
7095.68 1.6251e-14
7112.03 1.6517e-14
7128.43 1.6292e-14
7144.86 1.6257e-14
7161.33 1.6333e-14
7177.84 1.626e-14
7194.39 1.5037e-14
7210.97 1.5967e-14
7227.6 1.653e-14
7244.26 1.6456e-14
7260.95 1.6307e-14
7277.69 1.6882e-14
7294.47 1.6423e-14
7311.29 1.6924e-14
7328.14 1.732e-14
7345.03 1.7808e-14
7361.97 1.6891e-14
7378.94 1.7935e-14
7395.95 1.6934e-14
7413.0 1.7857e-14
7430.08 1.6977e-14
7447.21 1.7535e-14
7464.38 1.7987e-14
7481.59 1.7661e-14
7498.83 1.7622e-14
7516.12 1.7869e-14
7533.45 1.7995e-14
7550.81 1.8332e-14
7568.22 1.7958e-14
7585.67 1.796e-14
7603.15 1.7838e-14
7620.68 1.7475e-14
7638.25 1.7436e-14
7655.86 1.7438e-14
7673.5 1.6164e-14
7691.19 1.7164e-14
7708.92 1.5873e-14
7726.69 1.6854e-14
7744.51 1.717e-14
7762.36 1.6897e-14
7780.25 1.6553e-14
7798.19 1.6746e-14
7816.17 1.6787e-14
7834.18 1.7259e-14
7852.25 1.7301e-14
7870.35 1.7303e-14
7888.49 1.695e-14
7906.67 1.6797e-14
7924.9 1.6341e-14
7943.17 1.6609e-14
7961.48 1.6881e-14
7979.83 1.6922e-14
7998.23 1.7199e-14
8016.66 1.7004e-14
8035.15 1.6241e-14
8053.67 1.6736e-14
8072.23 1.7406e-14
8090.84 1.6817e-14
8109.5 1.7172e-14
8128.19 1.7174e-14
8146.92 1.7375e-14
8165.71 1.7417e-14
8184.53 1.6712e-14
8203.4 1.5925e-14
8222.31 1.6988e-14
8241.26 1.5856e-14
8260.26 1.767e-14
8279.3 1.7754e-14
8298.39 1.6419e-14
8317.52 1.6765e-14
8336.69 1.669e-14
8355.91 1.6693e-14
8375.17 1.7084e-14
8394.48 1.6544e-14
8413.83 1.7286e-14
8433.23 1.6663e-14
8452.67 1.6627e-14
8472.16 1.6783e-14
8491.68 1.6669e-14
8511.26 1.5848e-14
8530.88 1.675e-14
8550.55 9.933e-15
8570.25 1.6678e-14
8590.01 1.6565e-14
8609.82 1.6453e-14
8629.66 1.6646e-14
8649.55 1.6919e-14
8669.5 1.1924e-14
8689.48 1.6013e-14
8709.51 1.6164e-14
8729.59 1.7084e-14
8749.71 1.6583e-14
8769.88 1.7049e-14
8790.1 1.6934e-14
8810.36 1.7054e-14
8830.67 1.6745e-14
8851.03 1.6825e-14
8871.44 1.5031e-14
8891.88 1.5998e-14
8912.38 1.6373e-14
8932.93 1.6262e-14
8953.52 1.5858e-14
8974.16 1.5181e-14
8994.85 1.5465e-14
9015.58 1.561e-14
9036.36 1.5292e-14
9057.19 1.728e-14
9078.08 1.6091e-14
9099.0 1.5089e-14
9119.98 1.6623e-14
9141.0 1.5444e-14
9162.07 1.4888e-14
9183.19 1.4318e-14
9204.36 1.563e-14
9225.58 1.5347e-14
9246.85 1.5527e-14
9268.16 1.5672e-14
9289.53 1.5108e-14
9310.95 1.6454e-14
9332.41 1.6494e-14
9353.92 1.6496e-14
9375.49 1.6235e-14
9397.1 1.6463e-14
9418.76 1.6127e-14
9440.47 1.6582e-14
9462.23 1.6738e-14
9484.05 1.6779e-14
9505.91 1.6399e-14
9527.82 1.6477e-14
9549.79 1.5993e-14
9571.81 1.6406e-14
9593.87 1.6752e-14
9615.98 1.6563e-14
9638.15 1.6642e-14
9660.37 1.6416e-14
9682.64 1.6646e-14
9704.96 1.6383e-14
9727.33 1.6235e-14
9749.76 1.6163e-14
9772.23 1.6277e-14
9794.76 1.6093e-14
9817.34 1.6432e-14
9839.97 1.6284e-14
9862.65 1.6287e-14
9885.38 1.6289e-14
9908.18 1.6179e-14
9931.02 1.6294e-14
9953.91 1.6372e-14
9976.86 1.6374e-14
9999.85 1.6301e-14
10022.9 1.6304e-14
10069.18 1.6085e-14
10115.65 1.6465e-14
10185.76 1.6321e-14
10232.79 1.6439e-14
10280.02 1.652e-14
10303.71 1.6485e-14
10495.27 1.6056e-14
10690.4 1.544e-14
10889.15 1.5019e-14
11091.59 1.441e-14
11297.79 1.4245e-14
11507.83 1.4278e-14
11694.83 1.3985e-14
11912.25 1.3448e-14
12105.81 1.3325e-14
12302.51 1.3172e-14
12502.41 1.2843e-14
12705.56 1.2579e-14
12912.01 1.235e-14
13091.63 1.218e-14
13304.35 1.1848e-14
13489.44 1.1632e-14
13708.62 1.1446e-14
13899.33 1.1032e-14
14092.69 1.056e-14
14288.74 1.0439e-14
14487.52 1.0535e-14
14689.06 1.0201e-14
14893.41 1.0343e-14
15100.58 1.0439e-14
15310.65 1.0633e-14
15487.94 1.0535e-14
15703.4 1.0367e-14
15885.24 1.0015e-14
16106.23 1.0061e-14
16292.72 1.0015e-14
16481.38 9.9004e-15
16710.66 9.855e-15
16904.17 9.7422e-15
17099.92 9.5864e-15
17297.91 9.2184e-15
17498.21 8.9465e-15
17700.84 8.5833e-15
17905.81 8.2538e-15
18113.13 7.8642e-15
18280.74 7.6675e-15
18492.42 7.4243e-15
18706.56 7.0738e-15
18879.64 6.9128e-15
19098.26 6.818e-15
19319.41 6.6169e-15
19498.16 6.3776e-15
19678.58 6.1753e-15
19906.45 5.9931e-15
20090.63 5.8973e-15
20323.28 5.7102e-15
20511.33 5.6579e-15
20701.11 5.5291e-15
20892.67 5.4157e-15
21085.97 5.3291e-15
21281.08 5.2318e-15
21478.0 5.1245e-15
21676.72 4.962e-15
21877.3 4.8939e-15
22079.74 4.7605e-15
22284.03 4.6415e-15
22490.23 4.5358e-15
22698.31 4.4203e-15
22908.35 3.9727e-15
23120.33 3.933e-15
23280.58 3.455e-15
23496.0 3.2589e-15
23713.39 3.3014e-15
23877.78 3.0368e-15
24098.7 2.9379e-15
24321.69 2.895e-15
24490.27 2.6876e-15
24716.89 2.6422e-15
24888.21 2.2473e-15
25055.52 2.4436e-15
25150.45 2.3712e-15
25245.48 2.3295e-15
25340.42 2.3572e-15
25435.45 2.2031e-15
25530.48 2.3681e-15
25625.41 2.2717e-15
25720.45 2.251e-15
25815.48 2.2651e-15
25910.41 2.2785e-15
26005.44 2.2592e-15
26100.38 2.2107e-15
26195.41 2.118e-15
26290.44 2.1675e-15
26385.37 2.1113e-15
26480.41 1.9892e-15
26575.44 1.9147e-15
26670.37 1.9076e-15
26765.4 1.8682e-15
26860.34 1.8554e-15
26955.37 1.7847e-15
27050.4 1.8329e-15
27145.33 1.8755e-15
27240.36 1.8618e-15
27335.4 1.8203e-15
27430.33 1.8003e-15
27525.36 1.8263e-15
27620.3 1.8369e-15
27715.33 1.7592e-15
27810.36 1.8888e-15
27905.29 1.8118e-15
28000.32 1.8299e-15
28095.36 1.7307e-15
28190.29 1.7647e-15
28285.32 1.7276e-15
28380.26 1.6724e-15
28475.29 1.6349e-15
28570.32 1.6512e-15
28665.25 1.5888e-15
28760.28 1.6458e-15
28855.32 1.5304e-15
28950.25 1.512e-15
29045.28 1.447e-15
29140.22 1.6004e-15
29235.25 1.5749e-15
29330.28 1.5672e-15
29425.22 1.466e-15
29520.24 1.47e-15
29615.28 1.4406e-15
29710.21 1.4604e-15
29805.24 1.4349e-15
29900.18 1.4213e-15
29995.21 1.3475e-15
30090.24 1.3497e-15
30185.18 1.3456e-15
30280.21 1.3279e-15
30375.24 1.3166e-15
30470.17 1.3077e-15
30565.2 1.2346e-15
30660.14 1.2424e-15
30755.17 1.2246e-15
30850.2 1.3082e-15
30945.14 1.2926e-15
31040.17 1.2584e-15
31135.2 1.2462e-15
31230.13 1.2505e-15
31325.16 1.2282e-15
31420.1 1.2638e-15
31515.13 1.2074e-15
31610.16 1.2415e-15
31705.1 1.2299e-15
31800.13 1.2405e-15
31895.16 1.3362e-15
31990.09 1.2851e-15
32085.12 1.3801e-15
32180.06 1.442e-15
32275.09 1.5507e-15
32370.12 1.6467e-15
32465.06 1.7795e-15
32560.09 1.8532e-15
32655.12 1.7862e-15
32750.05 1.7423e-15
32845.08 1.5284e-15
32940.02 1.4618e-15
33035.05 1.4426e-15
33130.08 1.3893e-15
33225.01 1.3481e-15
33320.05 1.2767e-15
33415.08 1.1721e-15
33510.01 1.2695e-15
33605.05 1.2638e-15
33699.98 1.3122e-15
33795.01 1.2871e-15
33890.04 1.3104e-15
33984.98 1.2149e-15
34080.01 1.2259e-15
34175.04 1.2255e-15
34269.97 1.2135e-15
34365.0 1.2109e-15
34459.94 1.2495e-15
34554.97 1.2393e-15
34650.0 1.2305e-15
34744.93 1.1717e-15
34839.97 1.1876e-15
34935.0 1.1623e-15
35029.93 1.2095e-15
35124.96 1.0489e-15
35219.9 1.0936e-15
35314.93 1.0856e-15
35409.96 1.0701e-15
35504.9 1.0712e-15
35599.93 1.0489e-15
35694.96 1.0203e-15
35789.89 1.057e-15
35884.93 9.3427e-16
35979.86 1.0102e-15
36074.89 1.0056e-15
36169.92 9.6661e-16
36264.85 9.9209e-16
36359.89 9.3677e-16
36454.92 9.4269e-16
36549.85 9.4687e-16
36644.88 9.418e-16
36739.82 9.3481e-16
36834.85 9.0595e-16
36929.88 9.2805e-16
37024.82 9.3168e-16
37119.85 9.4598e-16
37214.88 9.0657e-16
37309.81 8.9294e-16
37404.85 8.8709e-16
37499.78 8.9435e-16
37594.81 8.7937e-16
37689.84 8.5614e-16
37784.78 8.7936e-16
37879.81 8.611e-16
37974.84 8.5499e-16
38069.78 8.7146e-16
38164.8 8.421e-16
38259.74 8.3144e-16
38354.77 8.0186e-16
38449.81 7.8787e-16
38544.74 7.8351e-16
38639.77 7.9885e-16
38734.8 7.7785e-16
38829.73 8.0535e-16
38924.77 8.069e-16
39019.7 7.8419e-16
39114.73 7.4579e-16
39209.76 7.7335e-16
39304.7 7.5071e-16
39399.73 7.2367e-16
39494.76 6.9694e-16
39589.69 7.3632e-16
39684.73 7.2644e-16
39779.66 7.4355e-16
39874.69 7.5085e-16
39969.73 7.4457e-16
40064.65 7.9753e-16
40159.69 7.9455e-16
40254.72 7.9191e-16
40349.66 7.681e-16
40444.69 7.2446e-16
40539.62 6.9824e-16
40634.65 6.8751e-16
40729.68 6.6831e-16
40824.62 6.244e-16
40919.65 6.5426e-16
41014.68 6.3044e-16
41109.61 6.08e-16
41204.65 6.3929e-16
41299.58 6.2887e-16
41394.61 6.474e-16
41489.65 6.4431e-16
41584.57 6.1721e-16
41679.61 6.127e-16
41774.64 6.0282e-16
41869.58 5.9442e-16
41964.6 6.2092e-16
42059.54 6.4112e-16
42154.57 5.782e-16
42249.6 5.8596e-16
42344.54 5.4e-16
42439.57 5.5254e-16
42534.6 5.5253e-16
42629.53 5.6038e-16
42724.57 5.2993e-16
42819.5 5.8706e-16
42914.54 5.5674e-16
43009.56 5.4898e-16
43104.49 5.5553e-16
43199.53 5.5612e-16
43294.56 5.2672e-16
43389.5 5.1795e-16
43484.52 5.0899e-16
43579.46 5.1623e-16
43674.49 5.1375e-16
43769.53 5.0068e-16
43864.46 4.6705e-16
43959.49 5.1726e-16
44054.52 4.8055e-16
44149.45 4.8131e-16
44244.49 4.3789e-16
44339.42 4.5868e-16
44434.46 4.4609e-16
44529.48 4.3488e-16
44624.42 4.6243e-16
44719.45 4.5587e-16
44814.48 4.2649e-16
44909.42 4.5347e-16
45004.44 4.3798e-16
45099.38 4.4517e-16
45194.41 4.2153e-16
45289.45 3.7255e-16
45384.38 3.9808e-16
45479.41 3.9046e-16
45574.44 3.5855e-16
45669.37 3.7184e-16
45764.41 3.4932e-16
45859.34 4.0145e-16
45954.38 3.7889e-16
46049.4 4.1654e-16
46144.34 4.1355e-16
46239.37 3.6758e-16
46334.4 4.1395e-16
46429.34 3.9877e-16
46524.37 4.7468e-16
46619.3 4.0797e-16
46714.33 3.6399e-16
46809.37 3.9455e-16
46904.3 3.7382e-16
46999.33 3.6105e-16
47094.36 3.9262e-16
47189.29 3.8041e-16
47284.33 3.9791e-16
47379.26 3.9917e-16
47474.29 3.814e-16
47569.32 3.3693e-16
47664.26 3.7137e-16
47759.29 3.4485e-16
47854.33 3.7447e-16
47949.25 3.728e-16
48044.29 3.5952e-16
48139.22 3.6663e-16
48234.25 3.6692e-16
48329.29 3.8451e-16
48424.22 3.902e-16
48519.25 4.0762e-16
48615.27 3.7756e-16
49101.42 3.5887e-16
49592.43 3.3999e-16
50088.36 3.2092e-16
50589.24 3.0166e-16
51095.13 2.8221e-16
51219.51 2.7743e-16
51516.38 2.8169e-16
51813.26 3.6992e-16
52110.14 4.4327e-16
52407.02 4.4614e-16
52703.99 3.7224e-16
53000.87 3.6785e-16
53297.74 4.6885e-16
53594.62 3.9418e-16
53891.49 3.0139e-16
54188.47 3.3676e-16
54485.35 3.054e-16
54782.22 3.3853e-16
55079.1 3.8569e-16
55375.97 3.6371e-16
55672.95 3.9452e-16
55969.82 4.2407e-16
56266.7 4.6065e-16
56563.58 5.3365e-16
56860.46 5.5326e-16
57157.43 5.3093e-16
57454.31 5.0164e-16
57751.18 4.6545e-16
58048.06 4.4625e-16
58344.93 4.6355e-16
58641.91 4.8799e-16
58938.78 4.9545e-16
59235.66 4.7763e-16
59532.54 5.261e-16
59829.42 5.9343e-16
60126.39 6.7064e-16
60423.26 7.0322e-16
60720.14 7.262e-16
61017.02 8.3132e-16
61313.89 1.0646e-15
61610.87 1.5285e-15
61907.75 1.8895e-15
62204.62 1.937e-15
62501.5 1.713e-15
62798.37 1.4513e-15
63095.35 1.2119e-15
63392.22 1.0544e-15
63689.1 9.4034e-16
63985.98 8.5372e-16
64282.86 7.6783e-16
64579.83 7.1065e-16
64876.7 7.1384e-16
65173.58 6.5758e-16
65470.46 6.535e-16
65767.33 6.5207e-16
66064.31 6.5038e-16
66361.18 6.7729e-16
66658.06 6.8151e-16
66954.93 6.7565e-16
67251.81 6.7346e-16
67548.79 6.7175e-16
67845.66 6.7099e-16
68142.54 6.5814e-16
68439.42 6.7493e-16
68736.3 7.2855e-16
69033.27 7.5471e-16
69330.14 7.8503e-16
69627.02 1.0313e-15
69923.89 1.0631e-15
70220.77 9.0716e-16
70517.74 8.7591e-16
70814.63 8.7126e-16
71111.5 9.1628e-16
71408.38 9.068e-16
71705.25 9.392e-16
72002.23 9.6025e-16
72299.1 9.9483e-16
72595.98 1.0242e-15
72892.86 1.0639e-15
73189.73 1.1237e-15
73486.71 1.2148e-15
73783.58 1.236e-15
74080.46 1.4022e-15
74377.33 1.4848e-15
74971.09 1.8029e-15
75564.94 2.0656e-15
76158.69 2.1165e-15
76752.44 2.0416e-15
77346.29 1.9931e-15
77940.05 1.9514e-15
78533.9 1.8313e-15
79127.65 1.6553e-15
79721.41 1.4317e-15
80315.25 1.2457e-15
80909.01 1.1005e-15
81502.76 1.005e-15
82096.6 9.5109e-16
82690.36 9.369e-16
83284.11 9.1224e-16
83877.97 9.0226e-16
84471.72 9.0555e-16
85065.57 9.5125e-16
85659.32 9.5485e-16
86253.08 9.0088e-16
86846.93 7.7462e-16
87440.68 6.241e-16
88034.44 4.9649e-16
88628.28 4.0732e-16
89222.04 3.5296e-16
89815.79 3.094e-16
90409.64 2.7229e-16
91003.39 2.5515e-16
91597.24 2.3336e-16
92190.99 2.3042e-16
92784.75 2.081e-16
93378.59 2.0371e-16
93972.35 1.957e-16
94566.1 1.8399e-16
95159.95 1.8079e-16
95753.7 1.8505e-16
96347.45 2.0853e-16
96941.31 1.972e-16
97535.07 1.6894e-16
98128.92 1.5521e-16
98722.67 1.6278e-16
99316.42 1.5991e-16
99910.27 1.4814e-16
100504.02 1.5391e-16
101097.78 1.49e-16
101691.62 1.4829e-16
102285.38 1.5354e-16
102879.13 1.5249e-16
103472.98 1.5237e-16
104066.73 1.621e-16
104660.59 1.8318e-16
105254.33 2.0372e-16
105848.09 2.1487e-16
106441.95 2.1656e-16
107035.7 2.1835e-16
107629.45 2.2216e-16
108223.3 2.1659e-16
108817.05 2.4232e-16
109410.81 2.808e-16
110004.65 3.2206e-16
110598.41 3.6856e-16
111192.26 5.0903e-16
111786.01 8.0982e-16
112379.77 9.8919e-16
112973.61 9.0304e-16
113567.36 7.3811e-16
114161.12 6.1352e-16
114754.96 5.1997e-16
115348.72 4.6083e-16
115942.47 4.2006e-16
116536.32 3.88e-16
117130.08 3.8015e-16
117723.93 3.7869e-16
118317.68 3.9198e-16
118911.43 4.2105e-16
119505.29 4.3847e-16
120099.04 4.4232e-16
120692.8 4.3267e-16
121286.64 4.2519e-16
121880.39 4.306e-16
122474.15 4.5209e-16
123067.99 4.7319e-16
123661.75 4.8132e-16
124255.6 4.9574e-16
124849.35 5.1539e-16
125443.11 5.5127e-16
126036.96 5.9115e-16
126630.71 6.0625e-16
127224.46 6.9437e-16
127818.32 9.0417e-16
128412.06 8.0598e-16
129005.81 4.6956e-16
129599.67 3.8138e-16
130193.42 3.5477e-16
130787.17 3.4778e-16
131381.02 3.4322e-16
131974.77 3.4322e-16
132568.63 3.2926e-16
133162.38 3.3651e-16
133756.13 3.2912e-16
134349.99 3.25e-16
134943.74 3.2063e-16
135537.49 3.2263e-16
136131.34 3.1612e-16
136725.09 3.0941e-16
137318.84 2.9882e-16
137912.7 2.8882e-16
138506.45 2.8452e-16
139100.31 2.8708e-16
139694.06 2.8746e-16
140287.81 2.7624e-16
140881.66 2.7553e-16
141475.41 2.7417e-16
142069.16 2.7923e-16
143111.36 2.8494e-16
143942.71 2.7489e-16
144774.04 2.6323e-16
145605.37 2.504e-16
146436.6 2.5263e-16
147267.93 2.3778e-16
148099.26 2.3452e-16
148930.5 2.4187e-16
149761.83 2.3838e-16
150593.16 2.3766e-16
151424.39 2.3268e-16
152255.72 2.3173e-16
153087.07 2.2971e-16
153918.31 2.2921e-16
154749.63 2.4683e-16
155580.96 2.7288e-16
156412.19 2.6096e-16
157243.53 2.404e-16
158074.86 2.397e-16
158906.19 2.4475e-16
159737.43 2.4104e-16
160568.77 2.3765e-16
161400.08 2.3727e-16
162231.34 2.4688e-16
163062.65 2.7695e-16
163893.98 3.1253e-16
164725.23 3.3287e-16
165556.55 3.0941e-16
166387.89 2.9431e-16
167219.11 2.9751e-16
168050.46 3.011e-16
168881.79 3.0351e-16
169713.01 3.4244e-16
170544.35 3.7103e-16
171375.68 3.1681e-16
172207.01 3.0582e-16
173038.25 3.0385e-16
173869.59 2.9981e-16
174700.91 2.7979e-16
175532.16 2.5908e-16
176363.49 2.5107e-16
177194.82 2.4438e-16
178026.05 2.3722e-16
178857.37 2.3959e-16
179688.71 2.3558e-16
180519.95 2.2924e-16
181351.28 2.2132e-16
182182.61 2.215e-16
183013.83 2.193e-16
183845.17 2.1632e-16
184676.52 2.1828e-16
185507.85 2.2558e-16
186339.07 2.5367e-16
187170.41 2.8047e-16
188001.73 2.6589e-16
188832.98 2.3261e-16
189664.31 2.2821e-16
190495.64 2.3399e-16
191326.88 2.2917e-16
192158.22 2.3193e-16
192989.53 2.2785e-16
193820.77 2.3032e-16
194652.1 2.3017e-16
195483.43 2.2738e-16
196314.68 2.269e-16
197146.0 2.2874e-16
197977.34 2.3324e-16
198808.67 2.3697e-16
199639.89 2.3513e-16
200471.24 2.3042e-16
202133.8 2.316e-16
203796.46 2.4153e-16
205459.04 2.4403e-16
207121.59 2.489e-16
208784.25 2.514e-16
210446.82 2.5062e-16
212109.49 2.514e-16
213772.06 2.5619e-16
215434.62 2.5857e-16
217097.3 2.5641e-16
218759.86 2.6127e-16
220422.41 2.667e-16
222085.07 2.6774e-16
223747.65 2.6448e-16
225410.31 2.6772e-16
227072.88 2.7346e-16
228735.45 2.7884e-16
230398.12 2.8245e-16
232060.69 2.823e-16
233723.25 2.8423e-16
235385.89 2.9039e-16
237048.48 2.9346e-16
238711.13 2.9693e-16
240373.7 3.0126e-16
242036.27 3.004e-16
243698.94 3.0136e-16
245361.51 3.0482e-16
247024.07 3.0781e-16
248686.75 3.0751e-16
250349.31 3.0883e-16
252011.96 3.1439e-16
253674.52 3.1965e-16
255337.09 3.2346e-16
256999.76 3.2207e-16
258662.33 3.2714e-16
260324.9 3.3197e-16
261987.55 3.3064e-16
263650.12 3.3386e-16
265312.78 3.3248e-16
266975.34 3.3166e-16
268637.94 3.3526e-16
270300.6 3.377e-16
271963.14 3.3768e-16
273625.7 3.4301e-16
275288.39 3.4521e-16
276950.96 3.4912e-16
278613.62 3.46e-16
280276.18 3.4921e-16
281938.75 3.5521e-16
283601.41 3.5548e-16
285263.97 3.5666e-16
286926.54 3.5834e-16
288589.2 3.5959e-16
290251.76 3.5747e-16
291914.42 3.605e-16
293577.02 3.6292e-16
295239.58 3.676e-16
296902.24 3.7154e-16
298564.81 3.7291e-16
300227.38 3.7293e-16
301890.03 3.7789e-16
303552.6 3.8023e-16
305215.26 3.8346e-16
306877.82 3.8247e-16
308540.39 3.8612e-16
310203.05 3.9528e-16
311865.65 3.9159e-16
313528.21 3.8764e-16
315190.87 3.9149e-16
316853.41 3.9651e-16
318516.1 4.0177e-16
320178.66 4.0198e-16
321841.23 4.0204e-16
323503.89 4.0495e-16
325166.45 4.147e-16
326829.02 4.2101e-16
328491.71 4.3802e-16
330154.27 4.1984e-16
331816.9 4.3002e-16
333479.47 5.0327e-16
335142.07 4.6956e-16
336804.69 4.3332e-16
338467.26 4.1997e-16
340129.83 4.2742e-16
341792.51 4.358e-16
343455.05 4.3092e-16
