# col1 col2
# An Atlas of Galaxy Spectral Energy Distributions from the Ultraviolet to the Mid-Infrared
# Brown et al. (2014)
# http://dx.doi.org/10.5072/03/529D3551F0117
# 
# Column 1 : Restframe Wavelength (Angstrom)
# Column 2 : Flux per unit wavelength (ergs/s/cm^2/Angstrom)
# Column 3 : Observed wavelength (Angstrom)
# Column 4 : Source (0 = model, 1 = Optical Spectrum, 2 = Akari, 3 = Spitzer IRS)
# 
100.01 1.4783e-18
102.1 1.8104e-18
104.0 2.0406e-18
105.94 2.3865e-18
107.9 2.8104e-18
109.91 4.0623e-18
114.04 5.2453e-18
118.04 6.4531e-18
121.07 1.7489e-17
125.04 2.1417e-17
127.07 2.3376e-17
127.95 2.4591e-17
130.93 2.7718e-17
132.14 3.1244e-17
133.98 3.3633e-17
137.1 4.0529e-17
139.97 4.5161e-17
142.9 8.1615e-17
146.91 1.415e-16
151.02 1.5914e-16
154.9 1.7979e-16
158.87 2.0313e-16
161.82 2.217e-16
165.97 2.4875e-16
169.84 2.7464e-16
173.0 2.9769e-16
177.03 3.2717e-16
179.9 3.5056e-16
181.99 3.6709e-16
185.8 4.0065e-16
191.0 4.4439e-16
194.11 4.7399e-16
198.17 5.1141e-16
201.86 5.5178e-16
205.14 5.8313e-16
209.91 6.1627e-16
215.79 7.027e-16
219.81 7.5295e-16
222.86 7.8301e-16
227.01 8.3516e-16
230.17 1.2699e-15
233.91 2.1368e-15
239.91 2.8891e-15
246.06 2.8429e-15
251.79 3.1029e-15
257.06 2.5455e-15
260.04 3.1244e-15
264.27 3.3711e-15
269.18 3.4417e-15
274.18 3.4976e-15
279.28 3.5218e-15
283.82 3.6122e-15
289.76 3.5218e-15
295.83 3.6122e-15
301.33 3.4815e-15
308.35 3.6288e-15
317.72 3.8262e-15
328.13 3.8884e-15
338.1 3.8973e-15
348.37 3.8973e-15
357.31 3.9607e-15
365.63 4.081e-15
375.01 4.0716e-15
384.63 3.9063e-15
395.4 4.081e-15
404.61 4.1569e-15
414.04 4.1283e-15
421.74 4.0529e-15
429.58 3.9973e-15
440.6 4.0436e-15
450.86 3.9973e-15
460.3 3.9063e-15
469.94 3.8705e-15
479.78 3.8794e-15
489.82 3.7477e-15
500.08 3.8086e-15
505.87 3.7134e-15
511.73 3.9789e-15
520.04 3.9063e-15
529.71 3.7911e-15
539.56 3.5873e-15
549.59 3.5056e-15
559.81 3.6456e-15
570.22 3.6793e-15
579.48 3.5956e-15
590.26 3.5626e-15
599.85 3.3944e-15
609.59 3.0183e-15
619.5 3.4258e-15
629.56 3.3172e-15
639.79 3.3556e-15
650.19 3.2641e-15
657.72 3.1606e-15
665.33 3.2194e-15
674.59 3.2119e-15
685.55 3.0323e-15
695.09 3.1029e-15
704.76 2.8958e-15
716.21 3.0253e-15
726.17 2.9907e-15
734.58 2.9564e-15
744.8 2.8825e-15
755.16 2.8299e-15
765.67 2.5749e-15
774.53 2.7464e-15
785.31 2.6228e-15
794.4 2.6471e-15
805.45 2.6349e-15
814.78 2.5988e-15
824.21 2.5749e-15
835.68 2.3484e-15
845.36 2.4875e-15
855.15 2.4365e-15
865.05 2.4253e-15
875.06 2.3976e-15
885.2 2.3592e-15
895.45 2.3322e-15
905.82 2.2791e-15
914.2 2.2739e-15
924.78 3.7134e-15
935.49 5.1733e-15
944.15 6.4531e-15
955.08 7.1083e-15
963.92 7.5992e-15
975.08 4.303e-15
984.1 6.6339e-15
995.5 6.3646e-15
1004.71 7.2238e-15
1014.0 7.2572e-15
1025.75 4.9519e-15
1035.24 6.5278e-15
1044.82 8.031e-15
1054.48 7.7941e-15
1064.24 6.9465e-15
1074.09 7.3751e-15
1084.03 6.2772e-15
1094.06 7.4262e-15
1104.18 7.1083e-15
1114.4 6.9625e-15
1124.71 6.3499e-15
1135.12 7.0757e-15
1145.62 6.7728e-15
1156.22 6.7728e-15
1164.23 6.7107e-15
1175.01 5.2212e-15
1185.88 6.4383e-15
1194.1 5.7117e-15
1205.15 5.0092e-15
1216.3 3.7391e-15
1224.73 5.5561e-15
1236.06 6.2484e-15
1244.63 6.3646e-15
1256.15 6.2054e-15
1264.85 5.9947e-15
1273.62 6.3939e-15
1285.41 6.4087e-15
1294.32 5.6986e-15
1306.29 5.7117e-15
1315.35 6.234e-15
1324.46 5.9947e-15
1333.64 5.6204e-15
1345.98 6.0085e-15
1355.31 5.8718e-15
1364.71 5.5178e-15
1374.17 5.5051e-15
1383.69 5.4798e-15
1396.5 4.579e-15
1406.18 4.5058e-15
1415.92 5.1733e-15
1425.74 5.0555e-15
1435.62 5.1495e-15
1442.25 5.1972e-15
1445.57 5.1733e-15
1455.59 5.0439e-15
1465.68 4.828e-15
1475.84 4.8169e-15
1486.07 4.828e-15
1496.37 4.7618e-15
1503.28 4.579e-15
1513.7 4.2832e-15
1517.19 4.3931e-15
1524.19 4.3628e-15
1534.76 3.9334e-15
1545.4 3.7477e-15
1556.11 3.6878e-15
1563.29 3.9063e-15
1574.13 4.0623e-15
1585.04 4.0999e-15
1596.03 4.1093e-15
1603.39 3.9973e-15
1614.51 3.9516e-15
1625.7 3.8705e-15
1633.2 3.9789e-15
1644.52 3.9516e-15
1655.92 3.8616e-15
1663.57 3.9698e-15
1671.24 3.7219e-15
1675.1 4.0343e-15
1686.71 4.025e-15
1694.49 3.8705e-15
1706.24 3.7737e-15
1714.12 3.6288e-15
1726.0 3.5956e-15
1733.96 3.7477e-15
1745.98 3.6793e-15
1754.04 3.7911e-15
1766.2 3.6122e-15
1774.35 3.5956e-15
1786.65 3.6624e-15
1794.9 3.7999e-15
1803.18 3.7911e-15
1815.68 3.5544e-15
1824.06 3.6288e-15
1836.71 3.5544e-15
1845.19 3.2491e-15
1853.7 3.3402e-15
1866.55 3.4976e-15
1875.17 3.6122e-15
1883.82 3.418e-15
1896.88 3.418e-15
1905.64 3.5299e-15
1914.43 3.4655e-15
1923.27 3.2717e-15
1936.6 3.1244e-15
1945.54 3.6205e-15
1954.52 3.4735e-15
1968.07 3.835e-15
1977.15 3.7564e-15
1986.28 3.8086e-15
1995.45 3.8174e-15
2004.66 3.7999e-15
2013.91 3.8439e-15
2023.21 3.6205e-15
2037.23 3.9153e-15
2046.63 4.1569e-15
2056.08 3.8794e-15
2065.57 3.8794e-15
2075.11 4.3228e-15
2079.89 5.7912e-15
2084.68 6.6339e-15
2094.31 6.1769e-15
2103.97 6.0224e-15
2113.68 6.6645e-15
2123.44 6.0502e-15
2133.24 5.8313e-15
2143.09 6.9465e-15
2152.98 6.9146e-15
2162.92 6.1627e-15
2172.9 6.234e-15
2182.93 7.4777e-15
2193.01 7.5122e-15
2203.13 7.3075e-15
2213.3 5.9672e-15
2223.52 6.8041e-15
2233.78 8.6053e-15
2244.09 8.218e-15
2254.45 6.4978e-15
2264.85 6.1202e-15
2275.31 6.5278e-15
2285.81 8.4873e-15
2296.36 7.1597e-15
2306.96 8.5526e-15
2317.61 7.4526e-15
2322.95 6.1717e-15
2333.67 5.6314e-15
2344.45 4.1766e-15
2355.27 7.0799e-15
2366.14 4.5106e-15
2377.06 5.6292e-15
2382.54 3.7115e-15
2393.54 4.4439e-15
2404.58 4.446e-15
2415.68 5.1308e-15
2426.83 8.3252e-15
2432.43 8.3273e-15
2443.66 9.8791e-15
2454.94 1.0422e-14
2466.27 9.0604e-15
2477.65 7.9317e-15
2483.36 4.9485e-15
2494.82 6.0075e-15
2506.34 9.1603e-15
2512.12 4.3353e-15
2517.91 3.4925e-15
2523.71 3.8837e-15
2535.36 6.3163e-15
2547.07 6.6479e-15
2552.94 1.1879e-14
2564.72 8.8312e-15
2576.56 1.1304e-14
2582.5 9.9853e-15
2594.42 8.9451e-15
2606.39 7.6703e-15
2612.4 6.9171e-15
2624.46 9.4657e-15
2636.58 1.6726e-14
2642.65 2.2672e-14
2654.85 3.1822e-14
2667.1 2.0463e-14
2673.25 2.3125e-14
2685.59 2.7121e-14
2697.99 1.9299e-14
2704.21 2.408e-14
2716.69 1.7096e-14
2722.95 1.3305e-14
2735.52 1.7268e-14
2748.15 9.7161e-15
2754.48 1.3571e-14
2767.2 1.8149e-14
2773.58 1.9318e-14
2786.38 1.1148e-14
2792.8 4.9926e-15
2805.69 6.0058e-15
2812.16 1.6776e-14
2825.14 2.4885e-14
2838.18 2.3024e-14
2844.72 1.586e-14
2857.85 8.6607e-15
2864.44 2.2525e-14
2877.66 3.169e-14
2884.3 2.8843e-14
2897.61 3.5999e-14
2910.99 4.9266e-14
2931.16 4.2946e-14
2951.48 3.9382e-14
2971.94 4.0896e-14
2992.54 4.179e-14
3013.28 4.1731e-14
3027.19 4.5052e-14
3048.18 4.7654e-14
3069.31 5.2059e-14
3090.58 5.0337e-14
3112.0 5.9195e-14
3133.57 5.4286e-14
3148.04 5.4195e-14
3169.86 6.0584e-14
3191.83 5.2816e-14
3206.56 5.8754e-14
3228.79 4.9825e-14
3251.17 7.1099e-14
3273.71 8.3613e-14
3288.82 8.214e-14
3311.62 7.6379e-14
3319.25 6.9841e-14
3326.9 7.1163e-14
3334.57 7.8958e-14
3342.26 7.3712e-14
3349.96 7.974e-14
3357.69 8.219e-14
3365.43 5.6359e-14
3373.18 5.6248e-14
3380.96 7.4687e-14
3388.76 7.8594e-14
3396.57 6.7691e-14
3404.4 8.9676e-14
3412.24 7.5304e-14
3420.11 7.7618e-14
3427.99 8.1116e-14
3435.9 8.3995e-14
3443.82 6.0172e-14
3451.76 8.0083e-14
3459.71 8.2735e-14
3467.69 8.1252e-14
3475.68 8.1654e-14
3483.69 8.2438e-14
3491.73 8.3999e-14
3499.78 7.119e-14
3507.84 9.3662e-14
3515.93 7.6509e-14
3524.03 8.5874e-14
3532.16 8.8922e-14
3540.3 9.444e-14
3548.46 9.984e-14
3556.64 8.7188e-14
3564.84 9.1538e-14
3573.06 6.6184e-14
3581.3 7.3774e-14
3589.55 5.3217e-14
3597.16 7.6706e-14
3599.9 7.2305e-14
3602.64 8.7006e-14
3605.37 5.9171e-14
3608.11 6.4997e-14
3610.85 7.599e-14
3613.59 7.1219e-14
3616.32 1.1269e-13
3619.06 8.9957e-14
3621.8 8.3452e-14
3624.54 7.6865e-14
3627.27 8.1826e-14
3630.01 8.7038e-14
3632.75 8.6686e-14
3635.49 9.4525e-14
3638.22 9.5437e-14
3640.96 9.642e-14
3643.7 8.9435e-14
3646.44 8.4792e-14
3649.17 9.1777e-14
3651.91 9.8916e-14
3654.65 1.037e-13
3657.39 1.2083e-13
3660.13 1.1678e-13
3662.86 1.02e-13
3665.6 9.3376e-14
3668.34 1.0724e-13
3671.08 1.1265e-13
3673.81 1.1393e-13
3676.55 9.7524e-14
3679.29 9.4109e-14
3682.03 9.8671e-14
3684.76 9.7187e-14
3687.5 9.9971e-14
3690.24 1.0201e-13
3692.98 1.0395e-13
3695.71 1.0814e-13
3698.45 1.1113e-13
3701.19 1.035e-13
3703.93 9.4676e-14
3706.66 8.4827e-14
3709.4 9.3718e-14
3712.14 9.8424e-14
3714.88 8.9554e-14
3717.62 9.8824e-14
3720.35 9.902e-14
3723.09 1.0005e-13
3725.83 9.5795e-14
3728.57 9.7925e-14
3731.3 1.0127e-13
3734.04 8.5217e-14
3736.78 7.2936e-14
3739.52 7.2689e-14
3742.25 8.3919e-14
3744.99 7.3841e-14
3747.73 7.282e-14
3750.47 8.1975e-14
3753.2 9.1634e-14
3755.94 9.0552e-14
3758.68 8.9693e-14
3761.42 8.6274e-14
3764.15 8.5664e-14
3766.89 9.6275e-14
3769.63 1.1355e-13
3772.37 1.0641e-13
3775.11 9.9527e-14
3777.84 1.1659e-13
3780.58 1.1945e-13
3783.32 1.0878e-13
3786.06 9.6161e-14
3788.79 1.0293e-13
3791.53 9.4967e-14
3794.27 9.5618e-14
3797.01 9.6517e-14
3799.74 9.8383e-14
3802.48 9.7464e-14
3805.22 1.0744e-13
3807.96 9.5139e-14
3810.69 9.0348e-14
3813.43 8.3288e-14
3816.17 7.8637e-14
3818.91 7.6694e-14
3821.64 7.1594e-14
3824.38 6.3984e-14
3827.12 6.2346e-14
3829.86 7.1626e-14
3832.6 5.4353e-14
3835.33 5.5264e-14
3838.07 6.6082e-14
3840.81 8.0612e-14
3843.55 8.9273e-14
3846.28 7.9906e-14
3849.02 9.9635e-14
3851.76 9.172e-14
3854.5 7.7684e-14
3857.23 9.1958e-14
3859.97 8.288e-14
3862.71 9.3948e-14
3865.45 9.3116e-14
3868.18 9.5547e-14
3870.92 7.9011e-14
3873.66 8.1952e-14
3876.4 9.0284e-14
3879.13 9.7882e-14
3881.87 9.0593e-14
3884.61 1.0297e-13
3887.35 9.8907e-14
3890.09 9.4772e-14
3892.82 1.0173e-13
3895.56 1.101e-13
3898.3 1.216e-13
3901.04 1.11e-13
3903.77 1.1603e-13
3906.51 1.1751e-13
3909.25 1.1742e-13
3911.99 1.2461e-13
3914.72 1.1343e-13
3917.46 1.1435e-13
3920.2 1.1289e-13
3922.94 9.0126e-14
3925.67 7.9383e-14
3928.41 6.6042e-14
3931.15 5.9878e-14
3933.89 6.4664e-14
3936.62 7.4058e-14
3939.36 8.8459e-14
3942.1 1.0272e-13
3944.84 1.1244e-13
3947.58 1.1605e-13
3950.31 1.17e-13
3953.05 1.125e-13
3955.79 1.1095e-13
3958.53 1.0792e-13
3961.26 8.3095e-14
3964.0 6.472e-14
3966.74 7.2425e-14
3969.48 8.1348e-14
3972.21 9.7979e-14
3974.95 1.1573e-13
3977.69 1.3029e-13
3980.43 1.3963e-13
3983.16 1.4879e-13
3985.9 1.5604e-13
3988.64 1.5769e-13
3991.38 1.6185e-13
3994.11 1.5987e-13
3996.85 1.6032e-13
3999.59 1.6048e-13
4002.33 1.6083e-13
4005.07 1.6846e-13
4007.8 1.6894e-13
4010.54 1.7492e-13
4013.28 1.8321e-13
4016.02 1.8109e-13
4018.75 1.7613e-13
4021.49 1.811e-13
4024.23 1.7377e-13
4026.97 1.7325e-13
4029.7 1.7056e-13
4032.44 1.6327e-13
4035.18 1.6865e-13
4037.92 1.7487e-13
4040.65 1.7092e-13
4043.39 1.6687e-13
4046.13 1.6545e-13
4048.87 1.6251e-13
4051.6 1.6582e-13
4054.34 1.6294e-13
4057.08 1.588e-13
4059.82 1.5805e-13
4062.55 1.5705e-13
4065.29 1.5966e-13
4068.03 1.6336e-13
4070.77 1.5874e-13
4073.51 1.6112e-13
4076.24 1.6766e-13
4078.98 1.7861e-13
4081.72 1.9001e-13
4084.46 1.8609e-13
4087.19 1.8257e-13
4089.93 1.7765e-13
4092.67 1.7253e-13
4095.41 1.6823e-13
4098.14 1.6323e-13
4100.88 1.6425e-13
4103.62 1.6879e-13
4106.36 1.7126e-13
4109.09 1.7083e-13
4111.83 1.7292e-13
4114.57 1.7883e-13
4117.31 1.8234e-13
4120.05 1.7518e-13
4122.78 1.7229e-13
4125.52 1.6594e-13
4128.26 1.7221e-13
4131.0 1.7189e-13
4133.73 1.7632e-13
4136.47 1.722e-13
4139.21 1.7163e-13
4141.95 1.7106e-13
4144.68 1.7032e-13
4147.42 1.7098e-13
4150.16 1.6899e-13
4152.9 1.6843e-13
4155.63 1.7052e-13
4158.37 1.722e-13
4161.11 1.7891e-13
4163.85 1.8303e-13
4166.58 1.7435e-13
4169.32 1.718e-13
4172.06 1.7233e-13
4174.8 1.6961e-13
4177.54 1.7547e-13
4180.27 1.788e-13
4183.01 1.8032e-13
4185.75 1.8826e-13
4188.49 1.7981e-13
4191.22 1.7497e-13
4193.96 1.7034e-13
4196.7 1.7311e-13
4199.44 1.7179e-13
4202.17 1.8018e-13
4204.91 1.8382e-13
4207.65 1.8869e-13
4210.39 1.8405e-13
4213.12 1.8222e-13
4215.86 1.8287e-13
4218.6 1.7672e-13
4221.34 1.7657e-13
4224.07 1.6566e-13
4226.81 1.6488e-13
4229.55 1.7039e-13
4232.29 1.7869e-13
4235.03 1.8061e-13
4237.76 1.8705e-13
4240.5 1.8997e-13
4243.24 1.8136e-13
4245.98 1.8087e-13
4248.71 1.8184e-13
4251.45 1.762e-13
4254.19 1.7631e-13
4256.93 1.8018e-13
4259.66 1.8345e-13
4262.4 1.8395e-13
4265.14 1.8031e-13
4267.88 1.7623e-13
4270.61 1.7352e-13
4273.35 1.6844e-13
4276.09 1.7826e-13
4278.83 1.761e-13
4281.56 1.7797e-13
4284.3 1.768e-13
4287.04 1.6726e-13
4289.78 1.5645e-13
4292.52 1.6069e-13
4295.25 1.4891e-13
4297.99 1.4483e-13
4300.73 1.3712e-13
4303.47 1.3348e-13
4306.2 1.441e-13
4308.94 1.639e-13
4311.68 1.7596e-13
4314.42 1.9723e-13
4317.15 1.9618e-13
4319.89 1.9368e-13
4322.63 1.9523e-13
4325.37 1.9581e-13
4328.1 2.0232e-13
4330.84 2.0921e-13
4333.58 2.0226e-13
4336.32 1.9939e-13
4339.05 1.9291e-13
4341.79 1.9591e-13
4344.53 2.064e-13
4347.27 2.1016e-13
4350.01 2.0582e-13
4352.74 2.0337e-13
4355.48 2.2006e-13
4358.22 2.2426e-13
4360.96 2.2205e-13
4363.69 2.2444e-13
4366.43 2.1684e-13
4369.17 2.0554e-13
4371.91 2.0508e-13
4374.64 1.9831e-13
4377.38 1.9474e-13
4380.12 1.887e-13
4382.86 1.852e-13
4385.59 1.8931e-13
4388.33 2.0185e-13
4391.07 2.0627e-13
4393.81 2.0844e-13
4396.54 2.0881e-13
4399.28 2.0426e-13
4402.02 2.0068e-13
4404.76 2.0498e-13
4407.5 2.1179e-13
4410.23 2.1434e-13
4412.97 2.2201e-13
4415.71 2.267e-13
4418.45 2.2663e-13
4421.18 2.211e-13
4423.92 2.2535e-13
4426.66 2.2313e-13
4429.4 2.1585e-13
4432.13 2.2566e-13
4434.87 2.2482e-13
4437.61 2.2571e-13
4440.35 2.3423e-13
4443.08 2.3674e-13
4445.82 2.3501e-13
4448.56 2.3025e-13
4451.3 2.2229e-13
4454.03 2.1829e-13
4456.77 2.1475e-13
4459.51 2.1852e-13
4462.25 2.1812e-13
4464.99 2.2696e-13
4467.72 2.4053e-13
4470.46 2.3478e-13
4473.2 2.4671e-13
4475.94 2.5057e-13
4478.67 2.5319e-13
4481.41 2.4613e-13
4484.15 2.4678e-13
4486.89 2.4749e-13
4489.62 2.4287e-13
4492.36 2.4563e-13
4495.1 2.4872e-13
4497.84 2.5437e-13
4500.57 2.599e-13
4503.31 2.6798e-13
4506.05 2.712e-13
4508.79 2.6624e-13
4511.52 2.5996e-13
4514.26 2.5585e-13
4517.0 2.5257e-13
4519.74 2.4965e-13
4522.48 2.439e-13
4525.21 2.3354e-13
4527.95 2.3008e-13
4530.69 2.3279e-13
4533.43 2.3306e-13
4536.16 2.4091e-13
4538.9 2.4983e-13
4541.64 2.4838e-13
4544.38 2.5412e-13
4547.11 2.5158e-13
4549.85 2.5087e-13
4552.59 2.5863e-13
4555.33 2.6186e-13
4558.06 2.6307e-13
4560.8 2.6366e-13
4563.54 2.6671e-13
4566.28 2.6584e-13
4569.01 2.6201e-13
4571.75 2.5959e-13
4574.49 2.6277e-13
4577.23 2.5897e-13
4579.96 2.5436e-13
4582.7 2.5009e-13
4585.44 2.5239e-13
4588.18 2.5537e-13
4590.92 2.5521e-13
4593.65 2.5416e-13
4596.39 2.5454e-13
4599.13 2.555e-13
4601.87 2.5902e-13
4604.6 2.5873e-13
4607.34 2.6786e-13
4610.08 2.7233e-13
4612.82 2.6884e-13
4615.55 2.6816e-13
4618.29 2.703e-13
4621.03 2.7368e-13
4623.77 2.7052e-13
4626.5 2.7134e-13
4629.24 2.7109e-13
4631.98 2.6495e-13
4634.72 2.5687e-13
4637.45 2.5033e-13
4640.19 2.5242e-13
4642.93 2.5106e-13
4645.67 2.4682e-13
4648.41 2.4512e-13
4651.14 2.4929e-13
4653.88 2.5623e-13
4656.62 2.6156e-13
4659.36 2.5749e-13
4662.09 2.4785e-13
4664.83 2.4179e-13
4667.57 2.4067e-13
4670.31 2.4872e-13
4673.04 2.4767e-13
4675.78 2.4863e-13
4678.52 2.5396e-13
4681.26 2.5496e-13
4683.99 2.5396e-13
4686.73 2.5193e-13
4689.47 2.4991e-13
4692.21 2.4901e-13
4694.94 2.4791e-13
4697.68 2.4802e-13
4700.42 2.4736e-13
4703.16 2.4827e-13
4705.9 2.5036e-13
4708.63 2.4569e-13
4711.37 2.512e-13
4714.11 2.6112e-13
4716.85 2.6472e-13
4719.58 2.6474e-13
4722.32 2.6697e-13
4725.06 2.6354e-13
4727.8 2.5733e-13
4730.53 2.5264e-13
4733.27 2.5843e-13
4736.01 2.6201e-13
4738.75 2.6564e-13
4741.48 2.7153e-13
4744.22 2.7581e-13
4746.96 2.745e-13
4749.7 2.717e-13
4752.43 2.6871e-13
4755.17 2.6561e-13
4757.91 2.6547e-13
4760.65 2.5847e-13
4763.39 2.5102e-13
4766.12 2.5353e-13
4768.86 2.6235e-13
4771.6 2.6582e-13
4774.34 2.6763e-13
4777.07 2.6774e-13
4779.81 2.6711e-13
4782.55 2.6685e-13
4785.29 2.6266e-13
4788.02 2.6587e-13
4790.76 2.7149e-13
4793.5 2.7336e-13
4796.24 2.7422e-13
4798.97 2.73e-13
4801.71 2.7564e-13
4804.45 2.7653e-13
4807.19 2.7172e-13
4809.92 2.7371e-13
4812.66 2.7807e-13
4815.4 2.7915e-13
4818.14 2.7898e-13
4820.88 2.748e-13
4823.61 2.7417e-13
4826.35 2.7584e-13
4829.09 2.7381e-13
4831.83 2.7359e-13
4834.56 2.7122e-13
4837.3 2.6994e-13
4840.04 2.7094e-13
4842.78 2.7257e-13
4845.51 2.7088e-13
4848.25 2.6737e-13
4850.99 2.5996e-13
4853.73 2.518e-13
4856.46 2.4433e-13
4859.2 2.4269e-13
4861.94 2.4246e-13
4864.68 2.4371e-13
4867.41 2.4735e-13
4870.15 2.4953e-13
4872.89 2.5637e-13
4875.63 2.6011e-13
4878.37 2.6185e-13
4881.1 2.6268e-13
4883.84 2.6241e-13
4886.58 2.6335e-13
4889.32 2.6377e-13
4892.05 2.6796e-13
4894.79 2.738e-13
4897.53 2.7984e-13
4900.27 2.801e-13
4903.0 2.7814e-13
4905.74 2.7814e-13
4908.48 2.7427e-13
4911.22 2.6848e-13
4913.95 2.645e-13
4916.69 2.6191e-13
4919.43 2.5968e-13
4922.17 2.6407e-13
4924.9 2.7101e-13
4927.64 2.7313e-13
4930.38 2.7434e-13
4933.12 2.7045e-13
4935.86 2.705e-13
4938.59 2.7353e-13
4941.33 2.7487e-13
4944.07 2.7766e-13
4946.81 2.7946e-13
4949.54 2.8116e-13
4952.28 2.7883e-13
4955.02 2.7319e-13
4957.76 2.6694e-13
4960.49 2.6289e-13
4963.23 2.6221e-13
4965.97 2.6454e-13
4968.71 2.6823e-13
4971.44 2.6713e-13
4974.18 2.6433e-13
4976.92 2.5958e-13
4979.66 2.5754e-13
4982.39 2.5318e-13
4985.13 2.5107e-13
4987.87 2.5673e-13
4990.61 2.6057e-13
4993.35 2.6096e-13
4996.08 2.5823e-13
4998.82 2.5794e-13
5001.56 2.525e-13
5004.3 2.4948e-13
5007.03 2.4557e-13
5009.77 2.4182e-13
5012.51 2.4169e-13
5015.25 2.416e-13
5017.98 2.4173e-13
5020.72 2.4396e-13
5023.46 2.4832e-13
5026.2 2.5088e-13
5028.93 2.51e-13
5031.67 2.4943e-13
5034.41 2.4686e-13
5037.15 2.4573e-13
5039.88 2.478e-13
5042.62 2.5267e-13
5045.36 2.5487e-13
5048.1 2.5563e-13
5050.84 2.5811e-13
5053.57 2.6208e-13
5056.31 2.6518e-13
5059.05 2.6438e-13
5061.79 2.6006e-13
5064.52 2.5674e-13
5067.26 2.5486e-13
5070.0 2.5224e-13
5072.74 2.5021e-13
5075.47 2.4889e-13
5078.21 2.4594e-13
5080.95 2.4622e-13
5083.69 2.5138e-13
5086.42 2.5629e-13
5089.16 2.5811e-13
5091.9 2.5795e-13
5094.64 2.5569e-13
5097.37 2.5176e-13
5100.11 2.5079e-13
5102.85 2.4921e-13
5105.59 2.4624e-13
5108.33 2.5077e-13
5111.06 2.547e-13
5113.8 2.537e-13
5116.54 2.555e-13
5119.28 2.5269e-13
5122.01 2.4825e-13
5124.75 2.4209e-13
5127.49 2.4405e-13
5130.23 2.4601e-13
5132.96 2.4698e-13
5135.7 2.4309e-13
5138.44 2.4233e-13
5141.18 2.4096e-13
5143.91 2.4207e-13
5146.65 2.4076e-13
5149.39 2.4197e-13
5152.13 2.4499e-13
5154.86 2.4453e-13
5157.6 2.3732e-13
5160.34 2.2735e-13
5163.08 2.168e-13
5165.82 2.1063e-13
5168.55 2.0488e-13
5171.29 2.025e-13
5174.03 2.1002e-13
5176.77 2.1166e-13
5179.5 2.1216e-13
5182.24 2.1531e-13
5184.98 2.2348e-13
5187.72 2.3033e-13
5190.45 2.3737e-13
5193.19 2.4425e-13
5195.93 2.4799e-13
5198.67 2.4935e-13
5201.4 2.4667e-13
5204.14 2.4117e-13
5206.88 2.4241e-13
5209.62 2.4789e-13
5212.35 2.5191e-13
5215.09 2.5288e-13
5217.83 2.5661e-13
5220.57 2.5641e-13
5223.31 2.5371e-13
5226.04 2.5361e-13
5228.78 2.5613e-13
5231.52 2.6397e-13
5234.26 2.7006e-13
5236.99 2.7226e-13
5239.73 2.7421e-13
5242.47 2.7317e-13
5245.21 2.6965e-13
5247.94 2.6711e-13
5250.68 2.6217e-13
5253.42 2.608e-13
5256.16 2.6278e-13
5258.89 2.5579e-13
5261.63 2.5115e-13
5264.37 2.436e-13
5267.11 2.4328e-13
5269.84 2.4486e-13
5272.58 2.4952e-13
5275.32 2.6354e-13
5278.06 2.7086e-13
5280.8 2.738e-13
5283.53 2.7785e-13
5286.27 2.8231e-13
5289.01 2.8874e-13
5291.75 2.8494e-13
5294.48 2.7966e-13
5297.22 2.7617e-13
5299.96 2.8091e-13
5302.7 2.8616e-13
5305.43 2.9063e-13
5308.17 2.9149e-13
5310.91 2.9545e-13
5313.65 2.9261e-13
5316.38 2.8655e-13
5319.12 2.7732e-13
5321.86 2.7199e-13
5324.6 2.668e-13
5327.33 2.6755e-13
5330.07 2.644e-13
5332.81 2.7274e-13
5335.55 2.7672e-13
5338.29 2.7612e-13
5341.02 2.7851e-13
5343.76 2.773e-13
5346.5 2.7941e-13
5349.24 2.8768e-13
5351.97 2.937e-13
5354.71 2.9487e-13
5357.45 2.9546e-13
5360.19 2.9255e-13
5362.92 2.8321e-13
5365.66 2.8361e-13
5368.4 2.8216e-13
5371.14 2.8004e-13
5373.87 2.8044e-13
5376.61 2.8754e-13
5379.35 2.9119e-13
5382.09 2.8843e-13
5384.82 2.8663e-13
5387.56 2.8298e-13
5390.3 2.7591e-13
5393.04 2.6949e-13
5395.78 2.6891e-13
5398.51 2.6477e-13
5401.25 2.647e-13
5403.99 2.6802e-13
5406.73 2.6825e-13
5409.46 2.7554e-13
5412.2 2.7994e-13
5414.94 2.8214e-13
5417.68 2.8663e-13
5420.41 2.8395e-13
5423.15 2.8163e-13
5425.89 2.7831e-13
5428.63 2.7678e-13
5431.36 2.7338e-13
5434.1 2.7881e-13
5436.84 2.765e-13
5439.58 2.7882e-13
5442.31 2.82e-13
5445.05 2.8412e-13
5447.79 2.7961e-13
5450.53 2.7433e-13
5453.27 2.8025e-13
5456.0 2.8037e-13
5458.74 2.7586e-13
5461.48 2.8152e-13
5464.22 2.7681e-13
5466.95 2.765e-13
5469.69 2.7078e-13
5472.43 2.7129e-13
5475.17 2.7232e-13
5477.9 2.7373e-13
5480.64 2.745e-13
5483.38 2.7634e-13
5486.12 2.741e-13
5488.85 2.7667e-13
5491.59 2.7982e-13
5494.33 2.7877e-13
5497.07 2.766e-13
5499.8 2.7607e-13
5502.54 2.7245e-13
5505.28 2.7824e-13
5508.02 2.736e-13
5510.76 2.699e-13
5513.49 2.7468e-13
5516.23 2.7528e-13
5518.97 2.8093e-13
5521.71 2.7906e-13
5524.44 2.7743e-13
5527.18 2.7327e-13
5529.92 2.7303e-13
5532.66 2.7975e-13
5535.39 2.7611e-13
5538.13 2.8043e-13
5540.87 2.8161e-13
5543.61 2.8344e-13
5546.34 2.8869e-13
5549.08 2.8769e-13
5551.82 2.8878e-13
5554.56 2.8427e-13
5557.29 2.8552e-13
5560.03 2.82e-13
5562.77 2.7322e-13
5565.51 2.7319e-13
5568.25 2.8781e-13
5570.98 2.7534e-13
5573.72 2.7993e-13
5576.46 2.7315e-13
5579.2 2.7503e-13
5581.93 2.7552e-13
5584.67 2.7118e-13
5587.41 2.6925e-13
5590.15 2.7192e-13
5592.88 2.6981e-13
5595.62 2.73e-13
5598.36 2.6943e-13
5601.1 2.811e-13
5603.83 2.8214e-13
5606.57 2.8129e-13
5609.31 2.8253e-13
5612.05 2.8376e-13
5614.78 2.8125e-13
5617.52 2.8124e-13
5620.26 2.8231e-13
5623.0 2.7898e-13
5625.73 2.8861e-13
5628.47 2.8249e-13
5631.21 2.7813e-13
5633.95 2.7977e-13
5636.69 2.7837e-13
5639.42 2.7819e-13
5642.16 2.7984e-13
5644.9 2.8197e-13
5647.64 2.7882e-13
5650.37 2.7898e-13
5653.11 2.7863e-13
5655.85 2.7283e-13
5658.59 2.7481e-13
5661.32 2.7309e-13
5664.06 2.7601e-13
5666.8 2.7995e-13
5669.54 2.8203e-13
5672.27 2.8237e-13
5675.01 2.8324e-13
5677.75 2.832e-13
5680.49 2.7869e-13
5683.22 2.8049e-13
5685.96 2.8313e-13
5688.7 2.83e-13
5691.44 2.832e-13
5694.18 2.8362e-13
5696.91 2.8159e-13
5699.65 2.753e-13
5702.39 2.7414e-13
5705.13 2.7252e-13
5707.86 2.706e-13
5710.6 2.7373e-13
5713.34 2.7699e-13
5716.08 2.8351e-13
5718.81 2.8801e-13
5721.55 2.9159e-13
5724.29 2.9044e-13
5727.03 2.9235e-13
5729.76 2.9066e-13
5732.5 2.9426e-13
5735.24 2.9492e-13
5737.98 2.9181e-13
5740.71 2.9365e-13
5743.45 2.9305e-13
5746.19 2.9091e-13
5748.93 2.878e-13
5751.67 2.8808e-13
5754.4 2.91e-13
5757.14 2.8846e-13
5759.88 2.8828e-13
5762.62 2.92e-13
5765.35 2.9446e-13
5768.09 2.9309e-13
5770.83 2.8934e-13
5773.57 2.8449e-13
5776.3 2.8124e-13
5779.04 2.7704e-13
5781.78 2.7666e-13
5784.52 2.8136e-13
5787.25 2.8467e-13
5789.99 2.8936e-13
5792.73 2.9198e-13
5795.47 2.9268e-13
5798.2 2.9332e-13
5800.94 2.9455e-13
5803.68 2.9235e-13
5806.42 2.9751e-13
5809.16 2.9782e-13
5811.89 2.9564e-13
5814.63 2.9669e-13
5817.37 2.9414e-13
5820.11 2.9647e-13
5822.84 2.9887e-13
5825.58 2.9839e-13
5828.32 2.9822e-13
5831.06 2.9727e-13
5833.79 2.9842e-13
5836.53 2.9622e-13
5839.27 2.9488e-13
5842.01 2.9937e-13
5844.74 2.9474e-13
5847.48 2.9425e-13
5850.22 2.9016e-13
5852.96 2.883e-13
5855.69 2.8311e-13
5858.43 2.7657e-13
5861.17 2.7284e-13
5863.91 2.6583e-13
5866.65 2.684e-13
5869.38 2.6787e-13
5872.12 2.702e-13
5874.86 2.7623e-13
5877.6 2.7381e-13
5880.33 2.6664e-13
5883.07 2.5267e-13
5885.81 2.3762e-13
5888.55 2.2941e-13
5891.28 2.2436e-13
5894.02 2.2625e-13
5896.76 2.4288e-13
5899.5 2.5863e-13
5902.23 2.6721e-13
5904.97 2.7172e-13
5907.71 2.744e-13
5910.45 2.8006e-13
5913.18 2.8352e-13
5915.92 2.8126e-13
5918.66 2.8064e-13
5921.4 2.7616e-13
5924.14 2.8137e-13
5926.87 2.7893e-13
5929.61 2.7273e-13
5932.35 2.7645e-13
5935.09 2.8086e-13
5937.82 2.8435e-13
5940.56 2.8489e-13
5943.3 2.8755e-13
5946.04 2.8106e-13
5948.77 2.8357e-13
5951.51 2.8049e-13
5954.25 2.8755e-13
5956.99 2.8647e-13
5959.72 2.8378e-13
5962.46 2.8143e-13
5965.2 2.8446e-13
5967.94 2.8362e-13
5970.67 2.8641e-13
5973.41 2.8635e-13
5976.15 2.8211e-13
5978.89 2.8089e-13
5981.63 2.7585e-13
5984.36 2.8041e-13
5987.1 2.8086e-13
5989.84 2.8113e-13
5992.58 2.8973e-13
5995.31 2.8841e-13
5998.05 2.8036e-13
6000.79 2.8243e-13
6003.53 2.8345e-13
6006.26 2.7954e-13
6009.0 2.7654e-13
6011.74 2.7727e-13
6014.48 2.8325e-13
6017.21 2.8065e-13
6019.95 2.8681e-13
6022.69 2.7881e-13
6025.43 2.9416e-13
6028.16 2.8832e-13
6030.9 2.8807e-13
6033.64 2.9091e-13
6036.38 2.9374e-13
6039.12 2.9203e-13
6041.85 2.9304e-13
6044.59 2.9243e-13
6047.33 2.9448e-13
6050.07 2.9224e-13
6052.8 2.923e-13
6055.54 2.9263e-13
6058.28 2.9174e-13
6061.02 2.9181e-13
6063.75 2.8744e-13
6066.49 2.8792e-13
6069.23 2.9257e-13
6071.97 2.9527e-13
6074.7 2.8969e-13
6077.44 2.8602e-13
6080.18 2.828e-13
6082.92 2.8408e-13
6085.65 2.874e-13
6088.39 2.851e-13
6091.13 2.8321e-13
6093.87 2.8447e-13
6096.61 2.8187e-13
6099.34 2.7862e-13
6102.08 2.821e-13
6104.82 2.8531e-13
6107.56 2.8496e-13
6110.29 2.843e-13
6113.03 2.8539e-13
6115.77 2.8304e-13
6118.51 2.8046e-13
6121.24 2.8052e-13
6123.98 2.8406e-13
6126.72 2.8201e-13
6129.46 2.7946e-13
6132.19 2.7644e-13
6134.93 2.7636e-13
6137.67 2.8028e-13
6140.41 2.8e-13
6143.14 2.8391e-13
6145.88 2.8204e-13
6148.62 2.8041e-13
6151.36 2.7591e-13
6154.1 2.7206e-13
6156.83 2.6936e-13
6159.57 2.6415e-13
6162.31 2.6383e-13
6165.05 2.6707e-13
6167.78 2.6414e-13
6170.52 2.6875e-13
6173.26 2.7235e-13
6176.0 2.7298e-13
6178.73 2.7826e-13
6181.47 2.7726e-13
6184.21 2.7241e-13
6186.95 2.6865e-13
6189.68 2.6735e-13
6192.42 2.681e-13
6195.16 2.6774e-13
6197.9 2.7211e-13
6200.63 2.7579e-13
6203.37 2.7319e-13
6206.11 2.6831e-13
6208.85 2.6602e-13
6211.59 2.6549e-13
6214.32 2.656e-13
6217.06 2.6547e-13
6219.8 2.6539e-13
6222.54 2.6756e-13
6225.27 2.6877e-13
6228.01 2.6643e-13
6230.75 2.6029e-13
6233.49 2.6115e-13
6236.22 2.637e-13
6238.96 2.6084e-13
6241.7 2.6136e-13
6244.44 2.5624e-13
6247.17 2.64e-13
6249.91 2.5966e-13
6252.65 2.6126e-13
6255.39 2.5967e-13
6258.12 2.689e-13
6260.86 2.7104e-13
6263.6 2.6866e-13
6266.34 2.7909e-13
6269.08 2.6584e-13
6271.81 2.666e-13
6274.55 2.6235e-13
6277.29 2.6847e-13
6280.03 2.7028e-13
6282.76 2.7177e-13
6285.5 2.7762e-13
6288.24 2.7754e-13
6290.98 2.7118e-13
6293.71 2.7858e-13
6296.45 2.8178e-13
6299.19 2.683e-13
6301.93 2.7146e-13
6304.66 2.746e-13
6307.4 2.7061e-13
6310.14 2.7515e-13
6312.88 2.7273e-13
6315.61 2.6771e-13
6318.35 2.7547e-13
6321.09 2.7425e-13
6323.83 2.803e-13
6326.57 2.8584e-13
6329.3 2.904e-13
6332.04 2.7458e-13
6334.78 2.7154e-13
6337.52 2.7739e-13
6340.25 2.8403e-13
6342.99 2.7456e-13
6345.73 2.7644e-13
6348.47 2.752e-13
6351.2 2.7056e-13
6353.94 2.6947e-13
6356.68 2.7488e-13
6359.42 2.7319e-13
6362.15 2.7027e-13
6364.89 2.7469e-13
6367.63 2.8005e-13
6370.37 2.8201e-13
6373.1 2.8605e-13
6375.84 2.8645e-13
6378.58 2.8396e-13
6381.32 2.8062e-13
6384.06 2.8449e-13
6386.79 2.8352e-13
6389.53 2.7745e-13
6392.27 2.7525e-13
6395.01 2.7493e-13
6397.74 2.7562e-13
6400.48 2.792e-13
6403.22 2.8041e-13
6405.96 2.8016e-13
6408.69 2.7798e-13
6411.43 2.7695e-13
6414.17 2.7685e-13
6416.91 2.7493e-13
6419.64 2.7509e-13
6422.38 2.754e-13
6425.12 2.741e-13
6427.86 2.757e-13
6430.59 2.7949e-13
6433.33 2.7734e-13
6436.07 2.7417e-13
6438.81 2.7614e-13
6441.55 2.7773e-13
6444.28 2.729e-13
6447.02 2.7026e-13
6449.76 2.6895e-13
6452.5 2.6935e-13
6455.23 2.7037e-13
6457.97 2.7399e-13
6460.71 2.7596e-13
6463.45 2.7735e-13
6466.18 2.8004e-13
6468.92 2.8257e-13
6471.66 2.7655e-13
6474.4 2.8082e-13
6477.13 2.7785e-13
6479.87 2.7526e-13
6482.61 2.7688e-13
6485.35 2.7376e-13
6488.08 2.6706e-13
6490.82 2.6196e-13
6493.56 2.6229e-13
6496.3 2.6634e-13
6499.04 2.7174e-13
6501.77 2.714e-13
6504.51 2.6939e-13
6507.25 2.7451e-13
6509.99 2.804e-13
6512.72 2.8041e-13
6515.46 2.8011e-13
6518.2 2.7717e-13
6520.94 2.8285e-13
6523.67 2.8107e-13
6526.41 2.7793e-13
6529.15 2.8982e-13
6531.89 2.871e-13
6534.62 2.8223e-13
6537.36 2.8548e-13
6540.1 2.9377e-13
6542.84 2.959e-13
6545.57 2.8849e-13
6548.31 2.8031e-13
6551.05 2.7599e-13
6553.79 2.6999e-13
6556.53 2.7142e-13
6559.26 2.6869e-13
6562.0 2.7488e-13
6564.74 2.7173e-13
6567.48 2.7462e-13
6570.21 2.7909e-13
6572.95 2.8091e-13
6575.69 2.8306e-13
6578.43 2.9804e-13
6581.16 3.0128e-13
6583.9 3.0044e-13
6586.64 2.9748e-13
6589.38 2.8996e-13
6592.11 2.8308e-13
6594.85 2.85e-13
6597.59 2.8182e-13
6600.33 2.7968e-13
6603.06 2.8273e-13
6605.8 2.8595e-13
6608.54 2.8473e-13
6611.28 2.8785e-13
6614.01 2.8864e-13
6616.75 2.8462e-13
6619.49 2.8236e-13
6622.23 2.8506e-13
6624.97 2.8558e-13
6627.7 2.8076e-13
6630.44 2.7798e-13
6633.18 2.7722e-13
6635.92 2.7785e-13
6638.65 2.781e-13
6641.39 2.7735e-13
6644.13 2.7961e-13
6646.87 2.817e-13
6649.6 2.8004e-13
6652.34 2.7494e-13
6655.08 2.7074e-13
6657.82 2.7458e-13
6660.55 2.7465e-13
6663.29 2.7524e-13
6666.03 2.7181e-13
6668.77 2.7376e-13
6671.5 2.7528e-13
6674.24 2.7144e-13
6676.98 2.7308e-13
6679.72 2.7485e-13
6682.46 2.7316e-13
6685.19 2.7643e-13
6687.93 2.7273e-13
6690.67 2.714e-13
6693.41 2.7384e-13
6696.14 2.7121e-13
6698.88 2.6844e-13
6701.62 2.6692e-13
6704.36 2.7531e-13
6707.09 2.7194e-13
6709.83 2.7206e-13
6712.57 2.7432e-13
6715.31 2.7549e-13
6718.04 2.6979e-13
6720.78 2.7169e-13
6723.52 2.7855e-13
6726.26 2.7416e-13
6728.99 2.79e-13
6731.73 2.7218e-13
6734.47 2.7056e-13
6737.21 2.6954e-13
6739.95 2.668e-13
6742.68 2.662e-13
6745.42 2.6322e-13
6748.16 2.6734e-13
6750.9 2.6574e-13
6753.63 2.6287e-13
6756.37 2.6913e-13
6759.11 2.6987e-13
6761.85 2.6627e-13
6764.58 2.6815e-13
6767.32 2.7011e-13
6770.06 2.6646e-13
6772.8 2.6359e-13
6775.53 2.6893e-13
6778.27 2.6833e-13
6781.01 2.6868e-13
6783.75 2.652e-13
6786.48 2.6254e-13
6789.22 2.6507e-13
6791.96 2.6785e-13
6794.7 2.6516e-13
6797.44 2.6063e-13
6808.32 2.7291e-13
6824.02 2.7541e-13
6839.75 2.7539e-13
6855.52 2.7348e-13
6871.32 2.6055e-13
6887.16 2.7031e-13
6903.04 2.7029e-13
6918.95 2.7215e-13
6934.9 2.6716e-13
6950.89 2.7974e-13
6966.91 2.7715e-13
6982.97 2.7145e-13
6999.06 2.8032e-13
7015.2 2.7519e-13
7031.37 2.689e-13
7047.58 2.8613e-13
7063.83 2.7576e-13
7080.11 2.7511e-13
7096.43 2.615e-13
7112.79 2.6451e-13
7129.19 2.6207e-13
7145.62 2.5965e-13
7162.1 2.6263e-13
7178.61 2.6141e-13
7195.15 2.4394e-13
7211.74 2.5838e-13
7228.37 2.6256e-13
7245.03 2.6804e-13
7261.73 2.6864e-13
7278.47 2.6924e-13
7295.25 2.6552e-13
7312.07 2.7547e-13
7328.92 2.8057e-13
7345.82 2.8576e-13
7362.75 2.6976e-13
7379.72 2.8638e-13
7396.74 2.76e-13
7413.79 2.8371e-13
7430.88 2.7596e-13
7448.01 2.7914e-13
7465.18 2.876e-13
7482.38 2.8494e-13
7499.64 2.7843e-13
7516.92 2.8164e-13
7534.25 2.8884e-13
7551.62 2.9283e-13
7569.03 2.8946e-13
7586.48 2.9011e-13
7603.96 2.8218e-13
7621.5 2.8022e-13
7639.06 2.7319e-13
7656.67 2.7506e-13
7674.33 2.3626e-13
7692.02 2.6876e-13
7709.75 2.4228e-13
7727.52 2.6564e-13
7745.33 2.7118e-13
7763.19 2.6499e-13
7781.08 2.6193e-13
7799.02 2.6556e-13
7817.0 2.6432e-13
7835.02 2.717e-13
7853.08 2.7293e-13
7871.18 2.7291e-13
7889.33 2.6791e-13
7907.52 2.6789e-13
7925.75 2.5758e-13
7944.02 2.6417e-13
7962.33 2.6598e-13
7980.68 2.7028e-13
7999.08 2.7213e-13
8017.52 2.7086e-13
8036.0 2.5865e-13
8054.53 2.6344e-13
8073.09 2.7647e-13
8091.71 2.6953e-13
8110.36 2.7642e-13
8129.06 2.7513e-13
8147.8 2.7701e-13
8166.58 2.7763e-13
8185.4 2.688e-13
8204.27 2.4457e-13
8223.19 2.7062e-13
8242.14 2.6201e-13
8261.14 2.7816e-13
8280.19 2.7749e-13
8299.27 2.6377e-13
8318.41 2.6314e-13
8337.58 2.613e-13
8356.8 2.6249e-13
8376.07 2.7044e-13
8395.38 2.5353e-13
8414.73 2.7164e-13
8434.13 2.5643e-13
8453.57 2.5937e-13
8473.06 2.5697e-13
8492.59 2.5993e-13
8512.17 2.5224e-13
8531.79 2.575e-13
8551.46 1.5232e-13
8571.17 2.5746e-13
8590.93 2.5216e-13
8610.73 2.586e-13
8630.58 2.5211e-13
8650.48 2.5737e-13
8670.42 1.6388e-13
8690.41 2.4859e-13
8710.44 2.4857e-13
8730.52 2.5906e-13
8750.65 2.514e-13
8770.82 2.5961e-13
8791.04 2.584e-13
8811.3 2.5366e-13
8831.61 2.4958e-13
8851.97 2.5714e-13
8872.38 2.3886e-13
8892.83 2.4553e-13
8913.33 2.4949e-13
8933.88 2.4718e-13
8954.47 2.3877e-13
8975.12 2.3171e-13
8995.81 2.2641e-13
9016.54 2.3816e-13
9037.33 2.3869e-13
9058.16 2.635e-13
9079.04 2.3919e-13
9099.97 2.3643e-13
9120.95 2.5508e-13
9141.98 2.3913e-13
9163.05 2.2059e-13
9184.17 2.1357e-13
9205.35 2.3578e-13
9226.57 2.3252e-13
9247.83 2.3628e-13
9269.16 2.379e-13
9290.52 2.298e-13
9311.94 2.4792e-13
9333.4 2.4789e-13
9354.92 2.473e-13
9376.49 2.4389e-13
9398.1 2.4669e-13
9419.77 2.4328e-13
9441.48 2.4438e-13
9463.24 2.4718e-13
9485.06 2.4659e-13
9506.93 2.4375e-13
9528.84 2.4429e-13
9550.81 2.4036e-13
9572.83 2.4256e-13
9594.89 2.4478e-13
9617.01 2.4195e-13
9639.18 2.4249e-13
9661.4 2.3914e-13
9683.67 2.4077e-13
9706.0 2.3799e-13
9728.37 2.3633e-13
9750.8 2.3576e-13
9773.28 2.3628e-13
9795.8 2.3302e-13
9818.39 2.3733e-13
9841.02 2.3567e-13
9863.71 2.3457e-13
9886.44 2.34e-13
9909.23 2.3077e-13
9932.08 2.3235e-13
9954.97 2.3232e-13
9977.92 2.323e-13
10000.92 2.3121e-13
10023.97 2.3012e-13
10070.25 2.2744e-13
10116.73 2.2792e-13
10163.42 2.2527e-13
10233.88 2.2468e-13
10281.11 2.2412e-13
10304.81 2.2255e-13
10496.39 2.1581e-13
10691.54 2.069e-13
10890.31 1.9988e-13
11092.77 1.9221e-13
11299.0 1.8697e-13
11509.07 1.8398e-13
11696.08 1.7814e-13
11913.52 1.7249e-13
12107.1 1.6818e-13
12303.82 1.6473e-13
12503.74 1.6024e-13
12706.91 1.5659e-13
12913.38 1.5268e-13
13093.03 1.4954e-13
13305.77 1.4547e-13
13490.87 1.4314e-13
13710.08 1.4053e-13
13900.81 1.3639e-13
14094.19 1.3206e-13
14290.26 1.2965e-13
14489.06 1.2995e-13
14690.62 1.2612e-13
14894.99 1.267e-13
15102.2 1.267e-13
15312.28 1.2787e-13
15489.59 1.267e-13
15705.08 1.2525e-13
15886.94 1.2183e-13
16107.95 1.2211e-13
16294.47 1.21e-13
16483.14 1.1879e-13
16712.45 1.1662e-13
16905.97 1.137e-13
17101.74 1.106e-13
17299.75 1.0636e-13
17500.08 1.0322e-13
17702.73 9.9487e-14
17907.72 9.6331e-14
18115.08 9.2421e-14
18282.69 8.9902e-14
18494.4 8.7251e-14
18708.56 8.3901e-14
18881.65 8.1615e-14
19100.3 7.9757e-14
19321.47 7.6872e-14
19500.24 7.3751e-14
19680.68 7.1576e-14
19908.58 6.9465e-14
20092.78 6.8197e-14
20278.7 6.5882e-14
20513.52 6.468e-14
20703.32 6.2772e-14
20894.89 6.1202e-14
21088.24 5.9809e-14
21283.35 5.8313e-14
21480.29 5.6986e-14
21679.03 5.5051e-14
21879.64 5.4047e-14
22082.1 5.2453e-14
22286.41 5.1023e-14
22492.63 4.9747e-14
22700.73 4.8391e-14
22910.79 4.3528e-14
23122.79 4.3129e-14
23283.06 3.7911e-14
23498.51 3.5956e-14
23715.92 3.6372e-14
23880.33 3.3479e-14
24101.27 3.2491e-14
24324.29 3.2194e-14
24492.88 3.0183e-14
24719.52 2.9838e-14
24890.86 2.5513e-14
25121.18 2.5163e-14
25295.33 2.5338e-14
25529.37 2.5163e-14
25706.34 2.5455e-14
25884.52 2.499e-14
26124.04 2.4875e-14
26305.11 2.4253e-14
26487.46 2.392e-14
26671.05 2.3484e-14
26917.84 2.3108e-14
27104.42 2.2687e-14
27292.31 2.2221e-14
27481.48 2.1816e-14
27671.96 2.1368e-14
27928.02 2.1027e-14
28121.62 2.0595e-14
28316.54 2.0219e-14
28512.8 1.9759e-14
28710.46 1.9354e-14
28909.46 1.9001e-14
29109.87 1.8611e-14
29311.63 1.8229e-14
29514.83 1.7855e-14
29719.4 1.7529e-14
29925.42 1.713e-14
30132.84 1.6818e-14
30271.92 1.6473e-14
30481.77 1.6209e-14
30693.04 1.595e-14
30905.82 1.5623e-14
31120.03 1.5373e-14
31335.76 1.5093e-14
31480.39 1.4817e-14
31698.59 1.4513e-14
31918.33 1.4281e-14
32065.65 1.3988e-14
32287.93 1.3733e-14
32511.73 1.3482e-14
32737.11 1.3236e-14
32888.2 1.2995e-14
33116.16 1.2758e-14
33269.04 1.2467e-14
33499.63 1.2211e-14
33731.86 1.1961e-14
33887.55 1.1689e-14
34122.43 1.1449e-14
34279.96 1.124e-14
34517.56 1.101e-14
34676.88 1.0784e-14
34917.26 1.0587e-14
35078.42 1.037e-14
35321.6 1.0134e-14
35484.62 9.9487e-15
35730.57 9.7447e-15
35895.52 9.5448e-15
36061.2 9.3706e-15
36311.14 9.1996e-15
36478.78 8.9902e-15
36731.62 8.8058e-15
36901.15 8.6252e-15
37071.51 8.4483e-15
37328.45 8.2941e-15
37500.78 8.1053e-15
37673.87 7.9757e-15
37934.99 7.8301e-15
38110.12 7.6695e-15
38286.01 7.5295e-15
38462.72 7.3921e-15
38729.35 7.2405e-15
38908.11 7.1083e-15
39087.69 6.9786e-15
39268.14 6.8512e-15
39540.31 6.6953e-15
39722.81 6.5882e-15
39906.19 6.4383e-15
40090.38 6.3353e-15
40275.41 6.2197e-15
40461.34 6.0921e-15
40741.79 5.9947e-15
40929.83 5.8989e-15
41118.79 5.7912e-15
41308.57 5.6986e-15
41499.22 5.5946e-15
41690.81 5.5051e-15
41883.23 5.4047e-15
42076.54 5.306e-15
42270.74 5.2332e-15
42465.89 5.1377e-15
42661.89 5.0672e-15
42858.79 4.8503e-15
43056.65 4.6534e-15
43255.38 4.6427e-15
43455.02 4.4439e-15
43655.64 4.3428e-15
43857.13 4.2635e-15
44059.55 4.1188e-15
44262.9 4.0436e-15
44467.24 3.9789e-15
44672.48 3.8705e-15
44878.66 3.835e-15
45085.85 3.765e-15
45293.94 3.6878e-15
45502.99 3.654e-15
45713.06 3.6039e-15
45924.05 3.4976e-15
46136.01 3.4895e-15
46349.0 3.4258e-15
46455.83 3.3866e-15
46670.25 3.3633e-15
46885.65 3.3019e-15
47102.11 3.2491e-15
47319.5 3.2417e-15
47537.9 3.1679e-15
47647.48 3.1388e-15
47867.45 3.1029e-15
48088.38 3.0253e-15
48310.33 3.0323e-15
48533.35 2.9701e-15
48645.23 2.9159e-15
48869.75 2.8759e-15
49095.31 2.8299e-15
49321.96 2.8039e-15
49549.6 2.7591e-15
49663.82 2.7401e-15
49893.04 2.6839e-15
50123.37 2.6351e-15
50354.71 2.587e-15
50470.78 2.534e-15
50703.73 2.4991e-15
50820.66 2.4761e-15
50937.8 2.4533e-15
51055.22 2.4251e-15
51172.9 2.3972e-15
51290.86 2.3805e-15
51409.09 2.3584e-15
51527.65 2.3312e-15
51646.43 2.3096e-15
51765.47 2.2934e-15
51884.8 2.2668e-15
52004.39 2.2406e-15
52124.27 2.2197e-15
52244.42 2.1939e-15
52364.9 2.1734e-15
52485.61 2.153e-15
52606.59 2.1427e-15
52727.85 2.1275e-15
52849.4 2.0978e-15
52971.22 2.0685e-15
53093.38 2.049e-15
53215.76 2.0297e-15
53338.43 2.0152e-15
53461.38 1.9961e-15
53584.61 1.9772e-15
53708.13 1.9585e-15
53831.92 1.9399e-15
53956.07 1.9214e-15
54080.44 1.9031e-15
54205.1 1.8806e-15
54330.05 1.8584e-15
54455.28 1.8406e-15
54580.81 1.8272e-15
54706.62 1.8055e-15
54832.78 1.7841e-15
54959.18 1.7669e-15
55085.86 1.7459e-15
55212.84 1.733e-15
55340.11 1.7242e-15
55467.67 1.6958e-15
55595.59 1.6755e-15
55723.74 1.6669e-15
55852.19 1.6469e-15
55980.93 1.6271e-15
56109.97 1.615e-15
56239.31 1.5956e-15
56368.95 1.5763e-15
56498.94 1.5645e-15
56629.17 1.5492e-15
56759.71 1.5339e-15
56890.54 1.5154e-15
57021.68 1.497e-15
57153.12 1.4891e-15
57284.92 1.4709e-15
57416.97 1.4564e-15
57549.32 1.4419e-15
57681.98 1.4276e-15
57814.94 1.4134e-15
57948.2 1.3993e-15
58081.78 1.3854e-15
58215.73 1.3684e-15
58349.92 1.3578e-15
58484.42 1.3442e-15
58619.23 1.3276e-15
58754.35 1.3142e-15
58889.78 1.301e-15
59286.66 1.436e-15
59595.11 1.4041e-15
59903.56 1.1909e-15
60212.03 1.4004e-15
60520.48 1.2847e-15
60828.94 1.2204e-15
61137.41 1.3427e-15
61445.86 1.1467e-15
61754.31 1.1086e-15
62062.78 1.1657e-15
62371.23 1.1165e-15
62679.69 1.2622e-15
62988.15 9.3552e-16
63296.61 1.13e-15
63605.08 1.1e-15
63913.53 1.1796e-15
64221.98 1.1159e-15
64530.45 1.1307e-15
64838.9 1.0355e-15
65147.36 1.1351e-15
65455.83 1.1297e-15
65764.27 1.0007e-15
66072.73 8.3288e-16
66381.2 1.0084e-15
66689.65 8.721e-16
66998.11 9.433e-16
67306.57 8.4369e-16
67615.03 8.4168e-16
67923.49 9.1182e-16
68231.95 8.1627e-16
68540.41 7.9803e-16
68848.87 7.4451e-16
69157.32 8.1293e-16
69465.78 7.6794e-16
69774.24 8.4558e-16
70082.7 8.3203e-16
70391.16 8.1712e-16
70699.62 8.1827e-16
71008.07 7.0151e-16
71316.54 6.6222e-16
71624.99 5.3188e-16
71933.46 6.9592e-16
72241.91 7.3822e-16
72550.36 6.0939e-16
72858.83 6.6465e-16
73167.28 6.6441e-16
73475.74 7.385e-16
73784.2 7.6713e-16
74092.66 5.4203e-16
74401.12 5.8106e-16
74709.57 7.9135e-16
74997.85 6.4093e-16
75615.98 5.9864e-16
76234.13 6.0921e-16
76852.27 4.6775e-16
77470.42 5.1187e-16
78088.56 5.4114e-16
78706.72 4.2364e-16
79324.86 4.5466e-16
79943.0 4.9359e-16
80561.16 5.1429e-16
81179.3 3.8753e-16
81797.44 4.6279e-16
82415.59 4.1654e-16
83033.74 3.4816e-16
83651.89 4.0586e-16
84270.03 3.6135e-16
84888.18 3.6341e-16
85506.33 4.3498e-16
86124.48 4.5194e-16
86742.62 4.5296e-16
87360.77 3.4271e-16
87978.92 3.6379e-16
88597.06 3.1476e-16
89215.2 3.2042e-16
89833.35 3.3189e-16
90451.49 3.1588e-16
91069.65 3.3976e-16
91687.79 2.8366e-16
92305.94 3.6723e-16
92924.09 3.167e-16
93542.23 3.162e-16
94160.37 3.8536e-16
94778.51 2.8057e-16
95396.67 2.9209e-16
96014.81 3.2073e-16
96632.95 3.6391e-16
97251.11 2.9182e-16
97869.26 2.5528e-16
98487.4 3.252e-16
99105.55 2.6285e-16
99723.65 2.7605e-16
100341.85 2.9439e-16
100959.95 2.7579e-16
101578.16 2.9266e-16
102196.27 2.3864e-16
102814.46 2.6591e-16
103432.58 2.5227e-16
104050.68 2.3688e-16
104668.88 2.8596e-16
105286.98 2.4801e-16
105905.19 2.4915e-16
106523.3 2.6002e-16
107141.4 2.6144e-16
107759.6 2.5568e-16
108377.71 2.7224e-16
108995.91 2.5485e-16
109614.01 2.4133e-16
110232.22 2.4727e-16
110850.33 2.3278e-16
111468.43 2.3478e-16
112086.63 3.273e-16
112704.74 3.3351e-16
113322.94 2.9154e-16
113941.04 2.6498e-16
114559.25 2.3952e-16
115177.35 2.3608e-16
115795.45 2.2396e-16
116413.66 2.2308e-16
117031.77 1.9952e-16
117649.96 1.7732e-16
118268.07 1.4292e-16
118886.28 2.2787e-16
119504.38 1.9566e-16
120122.48 2.0174e-16
120740.69 2.2291e-16
121358.8 2.0706e-16
121976.99 1.7609e-16
122595.1 2.1321e-16
123213.21 2.1906e-16
123831.41 2.0574e-16
124449.51 2.0094e-16
125067.72 1.6382e-16
125685.83 1.7383e-16
126304.02 1.9201e-16
126922.13 1.8008e-16
127540.24 1.9328e-16
128158.44 2.2677e-16
128776.54 1.5332e-16
129394.75 1.6554e-16
130012.85 1.4013e-16
130630.95 1.5238e-16
131249.16 1.6434e-16
131867.27 1.5794e-16
132485.47 1.3732e-16
133103.57 1.3096e-16
133721.77 1.7223e-16
134339.88 1.2014e-16
134957.99 1.4211e-16
135576.2 1.5179e-16
136194.29 1.1226e-16
136812.49 1.0763e-16
137430.6 9.755e-17
138048.81 1.3408e-16
138666.9 1.2899e-16
139285.01 1.2105e-16
139903.22 1.0857e-16
140521.33 1.4109e-16
141139.52 1.3199e-16
141757.63 9.745e-17
142023.72 1.0407e-16
142936.5 1.1647e-16
143849.37 9.9091e-17
144762.15 9.8623e-17
145674.91 9.0982e-17
146587.78 9.1538e-17
147500.56 8.7165e-17
148413.32 8.5203e-17
149326.1 8.6378e-17
150238.97 8.5692e-17
151151.75 8.3513e-17
152064.51 8.4847e-17
152977.38 8.2083e-17
153890.16 8.5861e-17
154802.92 1.1032e-16
155715.7 1.3263e-16
156628.57 1.0164e-16
157541.35 8.3487e-17
158454.11 8.2353e-17
159366.98 8.2419e-17
160279.76 8.3332e-17
161192.52 8.0178e-17
162105.39 7.4605e-17
163018.17 7.6914e-17
163930.93 8.5848e-17
164843.71 8.551e-17
165756.6 8.8875e-17
166669.34 8.7865e-17
167582.12 8.7138e-17
168494.9 7.9116e-17
169407.77 9.576e-17
170320.55 1.2425e-16
171233.32 1.0531e-16
172146.2 8.548e-17
173058.96 7.656e-17
173971.74 7.516e-17
174884.61 7.666e-17
175797.37 7.5354e-17
176710.15 6.9066e-17
177622.91 6.8425e-17
178535.78 6.6483e-17
179448.56 6.2672e-17
180361.32 6.6379e-17
181274.19 6.1572e-17
182186.97 6.0032e-17
183099.73 6.4879e-17
184012.6 5.9492e-17
184925.38 5.9812e-17
185838.16 5.9955e-17
186750.92 7.0675e-17
187663.79 7.4308e-17
188576.57 6.0291e-17
189489.33 5.4771e-17
190402.22 5.612e-17
191314.99 5.375e-17
192227.74 5.0348e-17
193140.52 5.4908e-17
194053.41 5.1589e-17
194966.17 4.416e-17
195878.95 4.6621e-17
196791.82 4.6946e-17
197704.58 4.3958e-17
198617.36 4.5333e-17
199530.13 4.4435e-17
200443.01 4.3715e-17
201355.77 4.9265e-17
202268.55 5.0291e-17
203181.42 3.5367e-17
204094.18 3.5393e-17
204276.56 3.7941e-17
206033.92 4.4881e-17
207792.36 4.4547e-17
209551.7 3.9593e-17
211312.13 3.6221e-17
213073.57 3.2637e-17
214836.09 3.6176e-17
216599.51 3.9552e-17
218364.03 3.4634e-17
220129.56 3.2094e-17
221896.16 3.4255e-17
223663.77 3.3811e-17
225432.37 3.2549e-17
227202.05 3.0599e-17
228972.75 3.1517e-17
230744.44 3.2532e-17
232517.22 3.0858e-17
234291.0 3.0341e-17
236065.87 3.0325e-17
237841.84 2.859e-17
239618.8 2.939e-17
241396.76 3.008e-17
243175.82 2.9446e-17
244955.86 2.9219e-17
246737.12 2.7337e-17
248519.26 2.6776e-17
250302.48 2.6904e-17
252086.81 2.6052e-17
253872.24 2.736e-17
255658.66 2.6179e-17
257446.16 2.7362e-17
259234.78 3.1615e-17
261024.48 3.0123e-17
262815.19 2.6126e-17
264606.96 2.4e-17
266399.89 2.588e-17
268193.74 2.5168e-17
269988.84 2.5902e-17
271784.9 2.6591e-17
273582.09 2.5179e-17
275380.36 2.4083e-17
277179.72 2.3801e-17
278980.17 2.4975e-17
280781.71 2.6099e-17
282584.37 2.6431e-17
284388.12 2.4275e-17
286192.96 2.506e-17
287998.88 2.4642e-17
289805.9 2.6375e-17
291614.03 2.5478e-17
293423.25 2.6789e-17
295233.56 2.4785e-17
297045.06 2.5481e-17
298857.67 2.5448e-17
300671.25 2.6371e-17
302486.04 2.7054e-17
304301.92 2.596e-17
306119.02 2.8089e-17
307937.11 2.8099e-17
309756.38 2.6856e-17
311576.83 2.7812e-17
313398.31 2.7329e-17
315220.97 2.8529e-17
317044.79 2.7819e-17
318869.63 2.8165e-17
320695.68 2.8005e-17
322522.95 2.9338e-17
324351.24 3.0126e-17
326180.65 3.157e-17
328011.31 3.1528e-17
329843.12 3.2534e-17
331676.02 3.1525e-17
333510.03 3.9552e-17
335345.23 4.3533e-17
337181.65 3.5483e-17
339019.21 3.7282e-17
340857.89 3.5652e-17
342697.7 3.2919e-17
344538.75 3.4719e-17
346380.94 5.0543e-17
348224.29 8.2953e-17
