# col1 col2
# An Atlas of Galaxy Spectral Energy Distributions from the Ultraviolet to the Mid-Infrared
# Brown et al. (2014)
# http://dx.doi.org/10.5072/03/529D3551F0117
# 
# Column 1 : Restframe Wavelength (Angstrom)
# Column 2 : Flux per unit wavelength (ergs/s/cm^2/Angstrom)
# Column 3 : Observed wavelength (Angstrom)
# Column 4 : Source (0 = model, 1 = Optical Spectrum, 2 = Akari, 3 = Spitzer IRS)
# 
100.01 2.9792e-20
102.11 3.6821e-20
104.0 4.16e-20
105.94 4.8876e-20
107.91 5.8223e-20
109.91 8.7316e-20
114.04 1.1537e-19
118.05 1.4391e-19
121.07 3.9636e-19
125.04 5.0245e-19
127.07 5.5988e-19
127.95 5.9305e-19
130.93 6.8564e-19
132.14 7.7285e-19
133.98 8.4546e-19
137.1 1.0378e-18
139.97 1.1915e-18
142.91 1.9235e-18
146.91 2.9587e-18
151.03 3.4841e-18
154.9 4.1029e-18
158.87 4.7984e-18
161.83 5.3839e-18
165.98 6.2531e-18
169.84 7.1795e-18
173.0 7.9633e-18
177.03 9.0802e-18
179.91 9.9792e-18
181.99 1.0644e-17
185.8 1.1998e-17
191.01 1.3839e-17
194.11 1.5069e-17
198.18 1.6792e-17
201.86 1.8668e-17
205.14 2.0142e-17
209.92 2.2136e-17
215.8 2.6127e-17
219.81 2.8648e-17
222.87 3.0415e-17
227.01 3.3197e-17
230.17 5.0477e-17
233.91 8.6118e-17
239.91 1.1197e-16
246.06 1.1484e-16
251.8 1.2592e-16
257.07 1.0992e-16
260.05 1.3095e-16
264.27 1.4064e-16
269.18 1.4591e-16
274.19 1.5069e-16
279.29 1.5527e-16
283.82 1.6073e-16
289.77 1.5962e-16
295.83 1.683e-16
301.33 1.6715e-16
308.35 1.7624e-16
317.72 1.8841e-16
328.13 1.9593e-16
338.1 2.0188e-16
348.38 2.0706e-16
357.31 2.1237e-16
365.64 2.1882e-16
375.02 2.2238e-16
384.64 2.1983e-16
395.41 2.2914e-16
404.62 2.334e-16
414.05 2.3501e-16
421.74 2.361e-16
429.59 2.361e-16
440.6 2.3938e-16
450.87 2.3994e-16
460.31 2.3938e-16
469.95 2.3994e-16
479.79 2.4104e-16
489.83 2.3938e-16
500.09 2.416e-16
505.88 2.5415e-16
511.74 3.3044e-16
520.05 3.312e-16
529.72 3.3197e-16
539.57 3.2218e-16
549.6 3.5245e-16
559.82 3.8203e-16
570.23 4.0095e-16
579.49 3.9093e-16
590.27 4.2179e-16
599.86 4.1985e-16
609.61 4.4065e-16
619.51 4.9101e-16
629.58 5.071e-16
639.81 5.1653e-16
650.2 5.4713e-16
657.73 5.5988e-16
665.35 5.8626e-16
674.6 5.9992e-16
685.57 5.9033e-16
695.1 6.8092e-16
704.77 6.5327e-16
716.22 7.5179e-16
726.19 7.7285e-16
734.6 7.945e-16
744.82 8.5328e-16
755.18 8.8939e-16
765.68 9.1853e-16
774.55 9.8196e-16
785.32 1.0401e-15
794.42 1.0767e-15
805.47 1.1145e-15
814.8 1.1458e-15
824.23 1.2249e-15
835.7 1.0992e-15
845.37 1.2885e-15
855.16 1.3307e-15
865.07 1.4064e-15
875.08 1.4828e-15
885.22 1.5743e-15
895.47 1.6447e-15
905.83 1.6715e-15
914.22 2.444e-15
924.8 1.4591e-14
935.51 3.1412e-14
944.17 6.1673e-14
955.1 8.4936e-14
963.94 1.0378e-13
975.1 2.416e-14
984.12 1.0992e-13
995.52 1.0892e-13
1004.73 1.3555e-13
1014.03 1.2109e-13
1025.77 4.8094e-14
1035.26 9.3993e-14
1044.84 1.6147e-13
1054.51 1.6184e-13
1064.26 1.3935e-13
1074.11 1.5852e-13
1084.05 1.3617e-13
1094.08 1.6259e-13
1104.2 1.5743e-13
1114.42 1.5563e-13
1124.73 1.4391e-13
1135.14 1.6561e-13
1145.64 1.5314e-13
1156.24 1.5926e-13
1164.26 1.6409e-13
1175.03 1.2738e-13
1185.9 1.5635e-13
1194.12 1.1888e-13
1205.17 9.1642e-14
1216.32 4.6569e-14
1224.75 1.0235e-13
1236.09 1.4692e-13
1244.66 1.6222e-13
1256.17 1.5999e-13
1264.88 1.4358e-13
1273.65 1.7143e-13
1285.43 1.7705e-13
1294.34 1.5492e-13
1306.32 1.5244e-13
1315.37 1.7543e-13
1324.49 1.6986e-13
1333.67 1.5852e-13
1346.01 1.7462e-13
1355.34 1.7104e-13
1364.74 1.5962e-13
1374.2 1.6372e-13
1383.72 1.6599e-13
1396.53 1.5035e-13
1406.21 1.5492e-13
1415.95 1.578e-13
1425.77 1.5816e-13
1435.65 1.5743e-13
1442.28 1.6334e-13
1445.6 1.6447e-13
1455.62 1.6147e-13
1465.71 1.5385e-13
1475.87 1.5244e-13
1486.1 1.5279e-13
1496.41 1.5385e-13
1503.31 1.4863e-13
1513.73 1.3807e-13
1517.22 1.4391e-13
1524.23 1.4096e-13
1534.79 1.2856e-13
1545.43 1.3649e-13
1556.14 1.2975e-13
1563.32 1.3095e-13
1574.16 1.3743e-13
1585.07 1.4096e-13
1596.06 1.4391e-13
1603.43 1.3903e-13
1614.54 1.3871e-13
1625.73 1.3369e-13
1633.24 1.3871e-13
1644.56 1.3935e-13
1655.96 1.3095e-13
1663.6 1.4064e-13
1671.28 1.2975e-13
1675.13 1.4031e-13
1686.74 1.4358e-13
1694.53 1.3712e-13
1706.28 1.3307e-13
1714.15 1.2945e-13
1726.03 1.2826e-13
1734.0 1.34e-13
1746.02 1.3065e-13
1754.08 1.3649e-13
1766.24 1.2679e-13
1774.39 1.3095e-13
1786.69 1.3155e-13
1794.94 1.368e-13
1803.22 1.3555e-13
1815.72 1.2975e-13
1824.1 1.3034e-13
1836.75 1.2679e-13
1845.22 1.186e-13
1853.74 1.1942e-13
1866.59 1.2193e-13
1875.21 1.2738e-13
1883.86 1.2025e-13
1896.92 1.1644e-13
1905.68 1.2081e-13
1914.47 1.1806e-13
1923.31 1.159e-13
1936.64 1.1671e-13
1945.58 1.2249e-13
1954.56 1.1671e-13
1968.11 1.2362e-13
1977.19 1.2534e-13
1981.75 1.2025e-13
1995.49 1.1752e-13
2004.7 1.186e-13
2013.95 1.1671e-13
2023.25 1.1888e-13
2037.27 1.1617e-13
2046.68 1.186e-13
2056.12 1.1405e-13
2065.61 1.1484e-13
2075.15 1.2053e-13
2079.93 1.1833e-13
2084.73 1.2053e-13
2094.35 1.1537e-13
2104.02 1.1617e-13
2113.73 1.1671e-13
2123.48 1.1752e-13
2133.29 1.112e-13
2143.13 1.1405e-13
2153.03 1.159e-13
2162.96 1.1248e-13
2172.95 1.1145e-13
2182.98 1.1171e-13
2193.05 1.1537e-13
2203.18 1.1248e-13
2213.34 1.0767e-13
2223.56 1.0595e-13
2233.82 1.1223e-13
2244.14 1.0817e-13
2254.49 1.0425e-13
2264.9 1.0474e-13
2275.35 1.0718e-13
2285.86 1.0967e-13
2296.41 1.0448e-13
2307.01 1.0556e-13
2317.66 1.0256e-13
2323.0 8.785e-14
2333.72 9.6655e-14
2344.49 9.177e-14
2355.31 9.9352e-14
2366.19 9.1548e-14
2377.11 9.4649e-14
2382.59 8.7067e-14
2393.59 9.1478e-14
2404.63 8.9079e-14
2415.73 9.0206e-14
2426.88 9.5872e-14
2432.48 9.2772e-14
2443.71 9.6798e-14
2454.99 9.5789e-14
2466.32 9.4354e-14
2477.7 9.1033e-14
2483.41 9.0974e-14
2494.88 8.7368e-14
2506.39 9.5893e-14
2512.17 8.6e-14
2517.96 8.5746e-14
2523.77 8.3163e-14
2535.42 8.4791e-14
2547.12 8.4483e-14
2552.99 9.0674e-14
2564.77 8.7679e-14
2576.61 9.1898e-14
2582.55 9.0785e-14
2594.47 8.9211e-14
2606.45 8.6064e-14
2612.46 8.4435e-14
2624.52 8.8495e-14
2636.63 9.275e-14
2642.71 1.0116e-13
2654.91 1.0505e-13
2667.16 9.5231e-14
2673.31 9.8735e-14
2685.65 1.002e-13
2698.04 9.3374e-14
2704.26 9.6808e-14
2716.75 9.0216e-14
2723.01 8.8708e-14
2735.58 9.2967e-14
2741.88 8.0911e-14
2754.54 8.4017e-14
2767.25 8.8251e-14
2773.63 9.1495e-14
2786.44 8.409e-14
2792.86 6.7362e-14
2805.75 7.1575e-14
2812.22 8.9419e-14
2825.2 9.5009e-14
2838.24 9.2065e-14
2844.78 8.7652e-14
2857.91 8.1299e-14
2864.5 9.2629e-14
2877.72 9.5294e-14
2884.36 9.3913e-14
2897.67 9.5069e-14
2911.05 1.0408e-13
2931.22 9.9152e-14
2951.54 9.6883e-14
2972.0 9.799e-14
2992.6 9.7974e-14
3013.35 9.8407e-14
3027.26 9.9151e-14
3048.24 9.9815e-14
3069.37 1.0025e-13
3090.64 9.9991e-14
3112.07 1.0135e-13
3126.43 9.887e-14
3148.1 9.8381e-14
3169.93 1.0017e-13
3191.9 9.4749e-14
3206.63 9.8126e-14
3228.86 9.281e-14
3251.24 1.0148e-13
3266.25 1.068e-13
3288.89 1.0552e-13
3311.68 1.0378e-13
3319.32 1.0086e-13
3326.97 1.0216e-13
3334.64 1.0737e-13
3342.33 1.0033e-13
3350.03 1.0448e-13
3357.76 1.0342e-13
3365.5 9.0196e-14
3373.25 8.99e-14
3381.03 9.8251e-14
3388.82 1.0278e-13
3396.64 9.6712e-14
3404.47 1.0472e-13
3412.31 9.7638e-14
3420.18 1.0167e-13
3428.07 1.0298e-13
3435.97 1.0311e-13
3443.89 9.3085e-14
3451.83 1.0482e-13
3459.78 1.0139e-13
3467.76 1.0036e-13
3475.75 1.0189e-13
3483.77 1.0155e-13
3491.8 1.0333e-13
3499.85 9.3924e-14
3507.92 1.0359e-13
3516.0 9.6356e-14
3524.11 9.8498e-14
3532.23 1.0303e-13
3540.37 1.0556e-13
3548.54 1.0966e-13
3556.72 1.0486e-13
3564.91 1.062e-13
3573.13 9.1135e-14
3581.37 9.489e-14
3589.62 8.3321e-14
3597.9 9.8921e-14
3606.19 9.7459e-14
3614.51 9.6461e-14
3619.71 7.3479e-14
3622.45 7.2499e-14
3625.19 9.3162e-14
3627.94 1.0956e-13
3630.68 8.9835e-14
3633.43 7.4162e-14
3636.17 9.0095e-14
3638.91 8.8107e-14
3641.66 1.0288e-13
3644.4 9.5924e-14
3647.15 1.0916e-13
3649.89 1.0009e-13
3652.63 9.4766e-14
3655.38 1.0735e-13
3658.12 1.3659e-13
3660.87 1.1036e-13
3663.61 9.7433e-14
3666.35 1.3216e-13
3669.1 1.1304e-13
3671.84 9.4667e-14
3674.59 9.7092e-14
3677.33 1.1949e-13
3680.07 1.1564e-13
3682.82 1.2106e-13
3685.56 1.1216e-13
3688.31 9.661e-14
3691.05 1.1628e-13
3693.79 1.305e-13
3696.54 1.1556e-13
3699.28 1.0291e-13
3702.03 1.1866e-13
3704.77 1.1587e-13
3707.51 1.1943e-13
3710.26 1.083e-13
3713.0 9.365e-14
3715.74 1.1117e-13
3718.49 1.2763e-13
3721.23 1.2237e-13
3723.98 1.2907e-13
3726.72 1.1402e-13
3729.46 1.1932e-13
3732.21 9.5308e-14
3734.95 1.0808e-13
3737.7 7.8548e-14
3740.44 1.0898e-13
3743.18 1.1025e-13
3745.93 1.075e-13
3748.67 1.1714e-13
3751.42 1.1646e-13
3754.16 1.1795e-13
3756.9 1.0373e-13
3759.65 1.2934e-13
3762.39 1.2208e-13
3765.14 1.282e-13
3767.88 1.1614e-13
3770.62 1.2851e-13
3773.37 1.3297e-13
3776.11 1.3057e-13
3778.86 1.4573e-13
3781.6 1.42e-13
3784.34 1.3912e-13
3787.09 1.5247e-13
3789.83 1.4573e-13
3792.58 1.3215e-13
3795.32 1.2896e-13
3798.06 1.1881e-13
3800.81 1.2142e-13
3803.55 1.3295e-13
3806.3 1.3206e-13
3809.04 1.4267e-13
3811.78 1.4622e-13
3814.53 1.4877e-13
3817.27 1.5225e-13
3820.02 1.4655e-13
3822.76 1.325e-13
3825.5 1.3259e-13
3828.25 1.1964e-13
3830.99 1.2186e-13
3833.74 1.0937e-13
3836.48 1.1604e-13
3839.22 1.1006e-13
3841.97 1.2313e-13
3844.71 1.4192e-13
3847.46 1.3934e-13
3850.2 1.4055e-13
3852.94 1.4497e-13
3855.69 1.4944e-13
3858.43 1.4889e-13
3861.18 1.5383e-13
3863.92 1.5457e-13
3866.66 1.6326e-13
3869.41 1.6141e-13
3872.15 1.52e-13
3874.9 1.479e-13
3877.64 1.4907e-13
3880.38 1.4568e-13
3883.13 1.4206e-13
3885.87 1.2932e-13
3888.62 1.1941e-13
3891.36 1.256e-13
3894.1 1.381e-13
3896.85 1.4429e-13
3899.59 1.4605e-13
3902.34 1.5157e-13
3905.08 1.5366e-13
3907.82 1.5312e-13
3910.57 1.6028e-13
3913.31 1.6019e-13
3916.06 1.5987e-13
3918.8 1.6122e-13
3921.54 1.6054e-13
3924.29 1.49e-13
3927.03 1.3395e-13
3929.78 1.1923e-13
3932.52 1.09e-13
3935.26 1.0714e-13
3938.01 1.1197e-13
3940.75 1.2519e-13
3943.5 1.3398e-13
3946.24 1.4529e-13
3948.98 1.5307e-13
3951.73 1.4815e-13
3954.47 1.5023e-13
3957.22 1.5057e-13
3959.96 1.3832e-13
3962.7 1.2926e-13
3965.45 1.1331e-13
3968.19 1.0185e-13
3970.94 9.6852e-14
3973.68 1.0067e-13
3976.42 1.1445e-13
3979.17 1.3378e-13
3981.91 1.5026e-13
3984.66 1.6794e-13
3987.4 1.7701e-13
3990.14 1.8168e-13
3992.89 1.7881e-13
3995.63 1.8019e-13
3998.38 1.79e-13
4001.12 1.8846e-13
4003.86 1.8519e-13
4006.61 1.8835e-13
4009.35 1.8738e-13
4012.1 1.9432e-13
4014.84 1.9592e-13
4017.58 1.9485e-13
4020.33 1.9805e-13
4023.07 1.9688e-13
4025.82 1.9261e-13
4028.56 1.9596e-13
4031.3 1.9677e-13
4034.05 1.9361e-13
4036.79 1.9122e-13
4039.54 1.9933e-13
4042.28 1.9462e-13
4045.02 1.9274e-13
4047.77 1.9268e-13
4050.51 1.9631e-13
4053.26 1.9936e-13
4056.0 1.8611e-13
4058.74 1.8684e-13
4061.49 1.9093e-13
4064.23 1.9233e-13
4066.98 1.9367e-13
4069.72 1.9057e-13
4072.46 1.961e-13
4075.21 1.9784e-13
4077.95 1.8564e-13
4080.7 1.8328e-13
4083.44 1.8431e-13
4086.18 1.9655e-13
4088.93 2.0183e-13
4091.67 1.9584e-13
4094.42 1.8889e-13
4097.16 1.7856e-13
4099.9 1.6795e-13
4102.65 1.5989e-13
4105.39 1.5062e-13
4108.14 1.6527e-13
4110.88 1.793e-13
4113.62 1.7971e-13
4116.37 1.8142e-13
4119.11 1.8872e-13
4121.86 1.8962e-13
4124.6 1.9287e-13
4127.34 1.9275e-13
4130.09 1.9089e-13
4132.83 1.8317e-13
4135.57 1.8652e-13
4138.32 1.9178e-13
4141.06 1.9234e-13
4143.81 1.9044e-13
4146.55 1.9301e-13
4149.29 1.8092e-13
4152.04 1.9292e-13
4154.78 1.9733e-13
4157.53 1.938e-13
4160.27 1.9325e-13
4163.01 2.0523e-13
4165.76 1.9949e-13
4168.5 2.0201e-13
4171.25 1.9337e-13
4173.99 1.7941e-13
4176.73 1.8083e-13
4179.48 1.8264e-13
4182.22 1.8361e-13
4184.97 1.8292e-13
4187.71 2.0034e-13
4190.45 1.9482e-13
4193.2 1.9406e-13
4195.94 1.9227e-13
4198.69 1.8809e-13
4201.43 1.8635e-13
4204.17 1.9079e-13
4206.92 1.8821e-13
4209.66 1.9504e-13
4212.41 1.9914e-13
4215.15 1.9918e-13
4217.89 1.9973e-13
4220.64 1.9383e-13
4223.38 1.9831e-13
4226.13 1.9304e-13
4228.87 1.8289e-13
4231.61 1.8562e-13
4234.36 1.8727e-13
4237.1 1.928e-13
4239.85 1.8924e-13
4242.59 2.0106e-13
4245.33 2.0373e-13
4248.08 2.0328e-13
4250.82 1.983e-13
4253.57 1.9058e-13
4256.31 1.9383e-13
4259.05 1.9658e-13
4261.8 1.8966e-13
4264.54 2.0025e-13
4267.29 1.9941e-13
4270.03 1.9057e-13
4272.77 1.8876e-13
4275.52 1.9096e-13
4278.26 1.946e-13
4281.01 1.9023e-13
4283.75 1.9315e-13
4286.49 1.9602e-13
4289.24 1.832e-13
4291.98 1.7955e-13
4294.73 1.8046e-13
4297.47 1.8251e-13
4300.21 1.7167e-13
4302.96 1.6684e-13
4305.7 1.6175e-13
4308.45 1.6443e-13
4311.19 1.6886e-13
4313.93 1.818e-13
4316.68 1.8897e-13
4319.42 2.0246e-13
4322.17 2.0372e-13
4324.91 1.9294e-13
4327.65 1.8615e-13
4330.4 1.8691e-13
4333.14 1.9389e-13
4335.89 1.8792e-13
4338.63 1.8062e-13
4341.37 1.7363e-13
4344.12 1.7324e-13
4346.86 1.7891e-13
4349.61 1.849e-13
4352.35 1.8973e-13
4355.09 1.8894e-13
4357.84 1.9054e-13
4360.58 1.9678e-13
4363.33 2.0713e-13
4366.07 2.1332e-13
4368.81 2.1233e-13
4371.56 2.0567e-13
4374.3 1.981e-13
4377.05 1.9811e-13
4379.79 1.9837e-13
4382.53 1.9474e-13
4385.28 1.8819e-13
4388.02 1.8814e-13
4390.77 1.9305e-13
4393.51 1.9681e-13
4396.25 2.026e-13
4399.0 1.9818e-13
4401.74 1.981e-13
4404.49 1.9354e-13
4407.23 2.0085e-13
4409.97 2.0173e-13
4412.72 2.01e-13
4415.46 2.0488e-13
4418.21 2.0272e-13
4420.95 2.094e-13
4423.69 2.1343e-13
4426.44 2.0758e-13
4429.18 2.0997e-13
4431.93 2.131e-13
4434.67 2.0609e-13
4437.41 2.0474e-13
4440.16 2.0885e-13
4442.9 2.1122e-13
4445.65 2.1678e-13
4448.39 2.1784e-13
4451.13 2.2004e-13
4453.88 2.1712e-13
4456.62 2.06e-13
4459.37 2.0621e-13
4462.11 2.0668e-13
4464.85 2.0951e-13
4467.6 2.1111e-13
4470.34 2.0652e-13
4473.09 2.1198e-13
4475.83 2.2163e-13
4478.57 2.2369e-13
4481.32 2.2472e-13
4484.06 2.206e-13
4486.81 2.2125e-13
4489.55 2.2178e-13
4492.29 2.1851e-13
4495.04 2.1559e-13
4497.78 2.1749e-13
4500.52 2.1747e-13
4503.27 2.2675e-13
4506.01 2.2932e-13
4508.76 2.327e-13
4511.5 2.3395e-13
4514.24 2.2725e-13
4516.99 2.2722e-13
4519.73 2.2913e-13
4522.48 2.2328e-13
4525.22 2.1974e-13
4527.96 2.1471e-13
4530.71 2.0794e-13
4533.45 2.0741e-13
4536.2 2.0441e-13
4538.94 2.1227e-13
4541.68 2.1784e-13
4544.43 2.1578e-13
4547.17 2.1628e-13
4549.92 2.1992e-13
4552.66 2.1533e-13
4555.4 2.1178e-13
4558.15 2.1693e-13
4560.89 2.2038e-13
4563.64 2.2541e-13
4566.38 2.2737e-13
4569.12 2.2927e-13
4571.87 2.2385e-13
4574.61 2.1075e-13
4577.36 2.1246e-13
4580.1 2.1585e-13
4582.84 2.1396e-13
4585.59 2.2032e-13
4588.33 2.2511e-13
4591.08 2.2298e-13
4593.82 2.2117e-13
4596.56 2.2278e-13
4599.31 2.2407e-13
4602.05 2.2048e-13
4604.8 2.2592e-13
4607.54 2.2589e-13
4610.28 2.2857e-13
4613.03 2.3469e-13
4615.77 2.2782e-13
4618.52 2.3158e-13
4621.26 2.3129e-13
4624.0 2.2579e-13
4626.75 2.3214e-13
4629.49 2.3044e-13
4632.24 2.2789e-13
4634.98 2.2573e-13
4637.72 2.2459e-13
4640.47 2.228e-13
4643.21 2.2234e-13
4645.96 2.2208e-13
4648.7 2.2137e-13
4651.44 2.2527e-13
4654.19 2.2493e-13
4656.93 2.2239e-13
4659.68 2.2649e-13
4662.42 2.2366e-13
4665.16 2.2198e-13
4667.91 2.1196e-13
4670.65 2.0688e-13
4673.4 2.138e-13
4676.14 2.1917e-13
4678.88 2.2429e-13
4681.63 2.2736e-13
4684.37 2.242e-13
4687.12 2.2653e-13
4689.86 2.2616e-13
4692.6 2.2577e-13
4695.35 2.2629e-13
4698.09 2.2537e-13
4700.84 2.192e-13
4703.58 2.1998e-13
4706.32 2.2175e-13
4709.07 2.2389e-13
4711.81 2.2627e-13
4714.56 2.2866e-13
4717.3 2.3232e-13
4720.04 2.2862e-13
4722.79 2.3318e-13
4725.53 2.324e-13
4728.28 2.2587e-13
4731.02 2.2326e-13
4733.76 2.1881e-13
4736.51 2.2445e-13
4739.25 2.2421e-13
4742.0 2.2907e-13
4744.74 2.3074e-13
4747.48 2.2731e-13
4750.23 2.2851e-13
4752.97 2.3054e-13
4755.72 2.241e-13
4758.46 2.2788e-13
4761.2 2.2681e-13
4763.95 2.2605e-13
4766.69 2.2252e-13
4769.44 2.2504e-13
4772.18 2.2785e-13
4774.92 2.2753e-13
4777.67 2.3199e-13
4780.41 2.2719e-13
4783.16 2.2609e-13
4785.9 2.2721e-13
4788.64 2.2663e-13
4791.39 2.265e-13
4794.13 2.3122e-13
4796.88 2.3144e-13
4799.62 2.3293e-13
4802.36 2.3051e-13
4805.11 2.3004e-13
4807.85 2.3022e-13
4810.6 2.2658e-13
4813.34 2.3498e-13
4816.08 2.3877e-13
4818.83 2.3151e-13
4821.57 2.297e-13
4824.32 2.3755e-13
4827.06 2.3571e-13
4829.8 2.3066e-13
4832.55 2.2609e-13
4835.29 2.2736e-13
4838.04 2.2569e-13
4840.78 2.2428e-13
4843.52 2.1818e-13
4846.27 2.2787e-13
4849.01 2.1964e-13
4851.76 2.1015e-13
4854.5 2.0828e-13
4857.24 2.0013e-13
4859.99 2.0464e-13
4862.73 2.0629e-13
4865.48 2.0886e-13
4868.22 2.0006e-13
4870.96 1.9341e-13
4873.71 1.9167e-13
4876.45 1.9959e-13
4879.19 2.0005e-13
4881.94 2.0949e-13
4884.68 2.1108e-13
4887.43 2.1438e-13
4890.17 2.0916e-13
4892.91 2.0666e-13
4895.66 2.1607e-13
4898.4 2.1711e-13
4901.15 2.1849e-13
4903.89 2.1937e-13
4906.63 2.1433e-13
4909.38 2.1494e-13
4912.12 2.1508e-13
4914.87 2.1219e-13
4917.61 2.1068e-13
4920.35 2.0723e-13
4923.1 2.0061e-13
4925.84 2.0537e-13
4928.59 2.1312e-13
4931.33 2.231e-13
4934.07 2.1742e-13
4936.82 2.2335e-13
4939.56 2.1994e-13
4942.31 2.1726e-13
4945.05 2.1855e-13
4947.79 2.2232e-13
4950.54 2.2412e-13
4953.28 2.2738e-13
4956.03 2.2011e-13
4958.77 2.1861e-13
4961.51 2.1797e-13
4964.26 2.2209e-13
4967.0 2.1822e-13
4969.75 2.2038e-13
4972.49 2.1946e-13
4975.23 2.2949e-13
4977.98 2.2713e-13
4980.72 2.1754e-13
4983.47 2.1334e-13
4986.21 2.0875e-13
4988.95 2.116e-13
4991.7 2.206e-13
4994.44 2.1572e-13
4997.19 2.1754e-13
4999.93 2.1532e-13
5002.67 2.1278e-13
5005.42 2.114e-13
5008.16 2.0423e-13
5010.91 2.0082e-13
5013.65 1.9982e-13
5016.39 2.0276e-13
5019.14 2.008e-13
5021.88 2.0433e-13
5024.63 2.105e-13
5027.37 2.0954e-13
5030.11 2.1621e-13
5032.86 2.1647e-13
5035.6 2.1281e-13
5038.35 2.1419e-13
5041.09 2.0698e-13
5043.83 2.1167e-13
5046.58 2.1497e-13
5049.32 2.1885e-13
5052.07 2.1431e-13
5054.81 2.0826e-13
5057.55 2.1921e-13
5060.3 2.2004e-13
5063.04 2.2659e-13
5065.79 2.2717e-13
5068.53 2.1943e-13
5071.27 2.1322e-13
5074.02 2.1388e-13
5076.76 2.1236e-13
5079.51 2.0992e-13
5082.25 2.1554e-13
5084.99 2.1345e-13
5087.74 2.0885e-13
5090.48 2.2131e-13
5093.23 2.2131e-13
5095.97 2.1857e-13
5098.71 2.194e-13
5101.46 2.0593e-13
5104.2 2.1082e-13
5106.95 2.0889e-13
5109.69 2.0941e-13
5112.43 2.1329e-13
5115.18 2.1253e-13
5117.92 2.232e-13
5120.67 2.2185e-13
5123.41 2.2216e-13
5126.15 2.1483e-13
5128.9 2.0429e-13
5131.64 2.0986e-13
5134.39 2.1495e-13
5137.13 2.1209e-13
5139.87 2.112e-13
5142.62 2.105e-13
5145.36 2.0288e-13
5148.11 2.1113e-13
5150.85 2.0968e-13
5153.59 2.0787e-13
5156.34 2.1128e-13
5159.08 2.1282e-13
5161.83 2.088e-13
5164.57 2.0652e-13
5167.31 1.9834e-13
5170.06 1.8452e-13
5172.8 1.8402e-13
5175.55 1.8409e-13
5178.29 1.9885e-13
5181.03 1.9822e-13
5183.78 1.8945e-13
5186.52 1.8975e-13
5189.27 1.9367e-13
5192.01 1.9732e-13
5194.75 1.9872e-13
5197.5 2.0843e-13
5200.24 2.07e-13
5202.99 2.0851e-13
5205.73 2.0513e-13
5208.47 2.0017e-13
5211.22 2.0586e-13
5213.96 2.1536e-13
5216.71 2.1509e-13
5219.45 2.139e-13
5222.19 2.1308e-13
5224.94 2.0553e-13
5227.68 2.0437e-13
5230.43 2.0442e-13
5233.17 2.0104e-13
5235.91 2.115e-13
5238.66 2.1127e-13
5241.4 2.1607e-13
5244.14 2.1936e-13
5246.89 2.1471e-13
5249.63 2.1182e-13
5252.38 2.0841e-13
5255.12 2.1293e-13
5257.86 2.149e-13
5260.61 2.0868e-13
5263.35 2.1028e-13
5266.1 1.9738e-13
5268.84 1.8989e-13
5271.58 1.9513e-13
5274.33 2.0015e-13
5277.07 2.0664e-13
5279.82 2.0885e-13
5282.56 2.1246e-13
5285.3 2.194e-13
5288.05 2.2392e-13
5290.79 2.2588e-13
5293.54 2.2554e-13
5296.28 2.2889e-13
5299.02 2.1411e-13
5301.77 2.1806e-13
5304.51 2.171e-13
5307.26 2.2382e-13
5310.0 2.2773e-13
5312.74 2.2832e-13
5315.49 2.2537e-13
5318.23 2.2473e-13
5320.98 2.2223e-13
5323.72 2.1958e-13
5326.46 2.1747e-13
5329.21 2.0649e-13
5331.95 2.1046e-13
5334.7 2.1105e-13
5337.44 2.1611e-13
5340.18 2.2088e-13
5342.93 2.2036e-13
5345.67 2.174e-13
5348.42 2.1763e-13
5351.16 2.2505e-13
5353.9 2.2116e-13
5356.65 2.2976e-13
5359.39 2.3285e-13
5362.14 2.2973e-13
5364.88 2.298e-13
5367.62 2.2213e-13
5370.37 2.1712e-13
5373.11 2.1487e-13
5375.86 2.1954e-13
5378.6 2.2721e-13
5381.34 2.1829e-13
5384.09 2.1697e-13
5386.83 2.2098e-13
5389.58 2.193e-13
5392.32 2.2408e-13
5395.06 2.187e-13
5397.81 2.1608e-13
5400.55 2.1484e-13
5403.3 2.1691e-13
5406.04 2.1149e-13
5408.78 2.1002e-13
5411.53 2.1294e-13
5414.27 2.1462e-13
5417.02 2.1936e-13
5419.76 2.2449e-13
5422.5 2.2019e-13
5425.25 2.1705e-13
5427.99 2.1575e-13
5430.74 2.1401e-13
5433.48 2.1497e-13
5436.22 2.1833e-13
5438.97 2.1657e-13
5441.71 2.2066e-13
5444.46 2.1903e-13
5447.2 2.194e-13
5449.94 2.1975e-13
5452.69 2.1356e-13
5455.43 2.1453e-13
5458.18 2.143e-13
5460.92 2.1508e-13
5463.66 2.22e-13
5466.41 2.218e-13
5469.15 2.2001e-13
5471.9 2.2077e-13
5474.64 2.1492e-13
5477.38 2.1242e-13
5480.13 2.1327e-13
5482.87 2.1116e-13
5485.62 2.0789e-13
5488.36 2.175e-13
5491.1 2.2173e-13
5493.85 2.1712e-13
5496.59 2.2161e-13
5499.34 2.166e-13
5502.08 2.1845e-13
5504.82 2.1861e-13
5507.57 2.1433e-13
5510.31 2.1662e-13
5513.06 2.1392e-13
5515.8 2.1752e-13
5518.54 2.1822e-13
5521.29 2.1767e-13
5524.03 2.2109e-13
5526.78 2.1848e-13
5529.52 2.1661e-13
5532.26 2.1594e-13
5535.01 2.155e-13
5537.75 2.1082e-13
5540.5 2.174e-13
5543.24 2.2111e-13
5545.98 2.1585e-13
5548.73 2.2666e-13
5551.47 2.2188e-13
5554.22 2.232e-13
5556.96 2.2472e-13
5559.7 2.2208e-13
5562.45 2.1687e-13
5565.19 2.2589e-13
5567.94 2.183e-13
5570.68 2.1176e-13
5573.42 2.2217e-13
5576.17 2.1658e-13
5578.91 2.1762e-13
5581.66 2.1918e-13
5584.4 2.1335e-13
5587.14 2.0544e-13
5589.89 2.1268e-13
5592.63 2.0744e-13
5595.38 2.1004e-13
5598.12 2.1305e-13
5600.86 2.1414e-13
5603.61 2.1639e-13
5606.35 2.1803e-13
5609.1 2.2286e-13
5611.84 2.2348e-13
5614.58 2.2102e-13
5617.33 2.1623e-13
5620.07 2.1343e-13
5622.81 2.1231e-13
5625.56 2.1809e-13
5628.3 2.2064e-13
5631.05 2.1799e-13
5633.79 2.1839e-13
5636.53 2.2089e-13
5639.28 2.1867e-13
5642.02 2.1721e-13
5644.77 2.1513e-13
5647.51 2.1934e-13
5650.25 2.2469e-13
5653.0 2.2113e-13
5655.74 2.1635e-13
5658.49 2.1159e-13
5661.23 2.1489e-13
5663.97 2.1298e-13
5666.72 2.1571e-13
5669.46 2.1959e-13
5672.21 2.1838e-13
5674.95 2.2341e-13
5677.69 2.2772e-13
5680.44 2.288e-13
5683.18 2.2386e-13
5685.93 2.1551e-13
5688.67 2.0823e-13
5691.41 2.1312e-13
5694.16 2.1723e-13
5696.9 2.2093e-13
5699.65 2.2208e-13
5702.39 2.1696e-13
5705.13 2.1495e-13
5707.88 2.1432e-13
5710.62 2.1179e-13
5713.37 2.0876e-13
5716.11 2.1081e-13
5718.85 2.1627e-13
5721.6 2.1816e-13
5724.34 2.2233e-13
5727.09 2.2367e-13
5729.83 2.1982e-13
5732.57 2.2133e-13
5735.32 2.227e-13
5738.06 2.1927e-13
5740.81 2.2025e-13
5743.55 2.2505e-13
5746.29 2.3008e-13
5749.04 2.2664e-13
5751.78 2.2284e-13
5754.53 2.1874e-13
5757.27 2.1831e-13
5760.01 2.1872e-13
5762.76 2.1482e-13
5765.5 2.1598e-13
5768.25 2.1904e-13
5770.99 2.2279e-13
5773.73 2.1993e-13
5776.48 2.1955e-13
5779.22 2.169e-13
5781.97 2.1561e-13
5784.71 2.09e-13
5787.45 2.0886e-13
5790.2 2.1508e-13
5792.94 2.1895e-13
5795.69 2.1956e-13
5798.43 2.2286e-13
5801.17 2.2194e-13
5803.92 2.1636e-13
5806.66 2.2152e-13
5809.41 2.1815e-13
5812.15 2.1801e-13
5814.89 2.1977e-13
5817.64 2.203e-13
5820.38 2.1925e-13
5823.13 2.1298e-13
5825.87 2.2128e-13
5828.61 2.2049e-13
5831.36 2.2296e-13
5834.1 2.1969e-13
5836.85 2.242e-13
5839.59 2.236e-13
5842.33 2.1666e-13
5845.08 2.2234e-13
5847.82 2.2439e-13
5850.57 2.2104e-13
5853.31 2.1676e-13
5856.05 2.0857e-13
5858.8 2.1064e-13
5861.54 2.0898e-13
5864.29 2.1707e-13
5867.03 2.1738e-13
5869.77 2.2108e-13
5872.52 2.1503e-13
5875.26 2.2068e-13
5878.01 2.1768e-13
5880.75 1.7882e-13
5883.49 2.0199e-13
5886.24 1.9121e-13
5888.98 1.8869e-13
5891.73 1.941e-13
5894.47 1.9613e-13
5897.21 1.9231e-13
5899.96 2.0307e-13
5902.7 2.0422e-13
5905.45 2.1865e-13
5908.19 2.1299e-13
5910.93 2.1445e-13
5913.68 2.0512e-13
5916.42 2.1303e-13
5919.17 2.0523e-13
5921.91 2.0915e-13
5924.65 2.1326e-13
5927.4 2.1463e-13
5930.14 2.0867e-13
5932.89 2.1353e-13
5935.63 2.0907e-13
5938.37 2.1191e-13
5941.12 2.1082e-13
5943.86 2.0708e-13
5946.61 2.1348e-13
5949.35 2.1215e-13
5952.09 2.1111e-13
5954.84 2.1479e-13
5957.58 2.146e-13
5960.33 2.1627e-13
5963.07 2.1898e-13
5965.81 2.1658e-13
5968.56 2.1592e-13
5971.3 2.114e-13
5974.05 2.1514e-13
5976.79 2.1066e-13
5979.53 2.1352e-13
5982.28 2.1478e-13
5985.02 2.1092e-13
5987.76 2.1149e-13
5990.51 2.1076e-13
5993.25 2.1453e-13
5996.0 2.1367e-13
5998.74 2.1543e-13
6001.48 2.1368e-13
6004.23 2.1376e-13
6006.97 2.1228e-13
6009.72 2.049e-13
6012.46 2.0808e-13
6015.2 2.1015e-13
6017.95 2.1013e-13
6020.69 2.1262e-13
6023.44 2.0926e-13
6026.18 2.0529e-13
6028.92 2.128e-13
6031.67 2.1372e-13
6034.41 2.1216e-13
6037.16 2.1071e-13
6039.9 2.1561e-13
6042.64 2.1754e-13
6045.39 2.1633e-13
6048.13 2.157e-13
6050.88 2.1791e-13
6053.62 2.1928e-13
6056.36 2.1818e-13
6059.11 2.1989e-13
6061.85 2.2257e-13
6064.6 2.2315e-13
6067.34 2.1646e-13
6070.08 2.1739e-13
6072.83 2.1933e-13
6075.57 2.1623e-13
6078.32 2.1204e-13
6081.06 2.1389e-13
6083.8 2.1498e-13
6086.55 2.1149e-13
6089.29 2.0831e-13
6092.04 2.0762e-13
6094.78 2.0909e-13
6097.52 2.1275e-13
6100.27 2.14e-13
6103.01 2.1114e-13
6105.76 2.0674e-13
6108.5 2.0877e-13
6111.24 2.0871e-13
6113.99 2.0959e-13
6116.73 2.126e-13
6119.48 2.1965e-13
6122.22 2.1192e-13
6124.96 2.0586e-13
6127.71 2.094e-13
6130.45 2.1184e-13
6133.2 2.1253e-13
6135.94 2.0691e-13
6138.68 2.0996e-13
6141.43 2.0266e-13
6144.17 2.1117e-13
6146.92 2.1405e-13
6149.66 2.1277e-13
6152.4 2.0652e-13
6155.15 2.1044e-13
6157.89 2.0753e-13
6160.64 2.0256e-13
6163.38 2.0136e-13
6166.12 1.9667e-13
6168.87 2.0186e-13
6171.61 2.0488e-13
6174.36 2.0631e-13
6177.1 2.0199e-13
6179.84 1.9974e-13
6182.59 2.0832e-13
6185.33 2.0737e-13
6188.08 2.027e-13
6190.82 1.9802e-13
6193.56 2.053e-13
6196.31 2.0299e-13
6199.05 2.0465e-13
6201.8 1.9852e-13
6204.54 2.0053e-13
6207.28 2.0587e-13
6210.03 2.092e-13
6212.77 2.0007e-13
6215.52 2.0255e-13
6218.26 1.9728e-13
6221.0 1.9687e-13
6223.75 1.95e-13
6226.49 1.8984e-13
6229.24 1.91e-13
6231.98 2.0084e-13
6234.72 1.9702e-13
6237.47 1.9891e-13
6240.21 2.0436e-13
6242.96 2.0007e-13
6245.7 1.9724e-13
6248.44 1.9077e-13
6251.19 1.9402e-13
6253.93 1.973e-13
6256.68 1.9949e-13
6259.42 1.9307e-13
6262.16 1.9755e-13
6264.91 2.0828e-13
6267.65 2.0966e-13
6270.4 2.0074e-13
6273.14 2.0345e-13
6275.88 2.1143e-13
6278.63 2.0923e-13
6281.37 2.0372e-13
6284.12 2.0076e-13
6286.86 2.6132e-13
6289.6 2.3282e-13
6292.35 2.0823e-13
6295.09 1.6655e-13
6297.84 1.8839e-13
6300.58 1.9808e-13
6303.32 1.9675e-13
6306.07 2.0183e-13
6308.81 2.0693e-13
6311.56 2.032e-13
6314.3 2.0207e-13
6317.04 1.9979e-13
6319.79 2.0066e-13
6322.53 1.9381e-13
6325.28 1.9145e-13
6328.02 2.1748e-13
6330.76 1.9818e-13
6333.51 2.0543e-13
6336.25 1.9861e-13
6339.0 2.1184e-13
6341.74 2.0811e-13
6344.48 2.0719e-13
6347.23 2.0566e-13
6349.97 2.103e-13
6352.71 2.0824e-13
6355.46 2.0278e-13
6358.2 2.0452e-13
6360.95 2.0339e-13
6363.69 2.0211e-13
6366.43 1.9795e-13
6369.18 2.0355e-13
6371.92 2.0678e-13
6374.67 2.0554e-13
6377.41 2.064e-13
6380.15 2.0931e-13
6382.9 2.1122e-13
6385.64 2.0607e-13
6388.39 2.0431e-13
6391.13 1.9932e-13
6393.87 2.0279e-13
6396.62 2.0132e-13
6399.36 2.0698e-13
6402.11 2.0994e-13
6404.85 2.0603e-13
6407.59 2.0841e-13
6410.34 2.0972e-13
6413.08 2.108e-13
6415.83 2.1077e-13
6418.57 2.0484e-13
6421.31 2.0509e-13
6424.06 2.0866e-13
6426.8 2.0929e-13
6429.55 2.0684e-13
6432.29 2.031e-13
6435.03 2.064e-13
6437.78 2.0461e-13
6440.52 2.0791e-13
6443.27 1.9814e-13
6446.01 1.9885e-13
6448.75 2.0804e-13
6451.5 2.0046e-13
6454.24 1.9683e-13
6456.99 1.9798e-13
6459.73 2.0371e-13
6462.47 2.04e-13
6465.22 2.0739e-13
6467.96 2.0639e-13
6470.71 2.1155e-13
6473.45 2.0593e-13
6476.19 2.0621e-13
6478.94 2.0387e-13
6481.68 2.0957e-13
6484.43 2.0627e-13
6487.17 2.0721e-13
6489.91 2.1235e-13
6492.66 1.9724e-13
6495.4 1.9638e-13
6498.15 1.9733e-13
6500.89 2.0063e-13
6503.63 1.9946e-13
6506.38 1.9879e-13
6509.12 2.0684e-13
6511.87 2.1029e-13
6514.61 2.0933e-13
6517.35 2.0752e-13
6520.1 2.109e-13
6522.84 2.118e-13
6525.59 2.1157e-13
6528.33 2.1217e-13
6531.07 2.1167e-13
6533.82 2.1084e-13
6536.56 2.0474e-13
6539.31 2.1164e-13
6542.05 2.11e-13
6544.79 2.1153e-13
6547.54 2.1351e-13
6550.28 2.221e-13
6553.03 2.2169e-13
6555.77 2.0705e-13
6558.51 2.1011e-13
6561.26 2.5603e-13
6564.0 2.988e-13
6566.75 2.7787e-13
6569.49 2.2169e-13
6572.23 1.976e-13
6574.98 1.9622e-13
6577.72 1.9675e-13
6580.47 2.1761e-13
6583.21 2.4291e-13
6585.95 2.5701e-13
6588.7 2.3872e-13
6591.44 2.1183e-13
6594.19 1.939e-13
6596.93 1.883e-13
6599.67 1.9791e-13
6602.42 1.9785e-13
6605.16 2.0075e-13
6607.91 1.9409e-13
6610.65 1.9561e-13
6613.39 2.0024e-13
6616.14 2.1013e-13
6618.88 2.1081e-13
6621.63 2.0149e-13
6624.37 2.0533e-13
6627.11 2.0435e-13
6629.86 2.004e-13
6632.6 2.0194e-13
6635.35 2.0697e-13
6638.09 2.0822e-13
6640.83 2.0925e-13
6643.58 2.0343e-13
6646.32 2.0501e-13
6649.07 2.0835e-13
6651.81 2.0552e-13
6654.55 2.0618e-13
6657.3 2.0551e-13
6660.04 2.0431e-13
6662.79 2.0746e-13
6665.53 1.981e-13
6668.27 1.9927e-13
6671.02 2.0719e-13
6673.76 2.0293e-13
6676.51 2.0628e-13
6679.25 2.0301e-13
6681.99 2.0159e-13
6684.74 2.008e-13
6687.48 2.0099e-13
6690.23 2.0535e-13
6692.97 2.0032e-13
6695.71 1.9885e-13
6698.46 1.9611e-13
6701.2 2.0039e-13
6703.95 1.9853e-13
6706.69 1.9958e-13
6709.43 1.9898e-13
6712.18 1.9948e-13
6714.92 2.0983e-13
6717.67 2.2339e-13
6720.41 2.196e-13
6723.15 2.0632e-13
6725.9 2.0485e-13
6728.64 2.0446e-13
6731.38 2.149e-13
6734.13 2.126e-13
6736.87 2.0275e-13
6739.62 1.9799e-13
6742.36 1.976e-13
6745.1 1.9523e-13
6747.85 1.9922e-13
6750.59 2.0144e-13
6753.34 1.9861e-13
6756.08 1.9794e-13
6758.82 1.9394e-13
6761.57 1.9684e-13
6764.31 2.0243e-13
6767.06 1.9722e-13
6769.8 1.9529e-13
6772.54 1.9409e-13
6775.29 1.92e-13
6778.03 1.9644e-13
6780.78 1.9549e-13
6783.52 1.9854e-13
6786.26 1.9025e-13
6789.01 1.9105e-13
6791.75 1.9339e-13
6794.5 2.0235e-13
6797.24 1.9976e-13
6799.98 1.9722e-13
6802.73 1.97e-13
6805.47 1.9697e-13
6808.22 2.0223e-13
6810.96 1.9917e-13
6813.7 2.1144e-13
6824.16 1.9721e-13
6839.89 1.9716e-13
6855.66 1.9529e-13
6871.46 1.8992e-13
6887.3 1.9429e-13
6903.18 1.9379e-13
6919.09 1.9418e-13
6935.04 1.9323e-13
6951.03 1.9722e-13
6967.05 1.9536e-13
6983.11 1.913e-13
6999.21 1.9524e-13
7015.34 1.9384e-13
7031.52 1.9157e-13
7047.73 1.9825e-13
7063.97 1.9457e-13
7080.26 1.9451e-13
7096.58 1.8872e-13
7112.94 1.8954e-13
7129.34 1.8818e-13
7145.77 1.8726e-13
7162.24 1.8763e-13
7178.76 1.8416e-13
7195.3 1.7703e-13
7211.89 1.7986e-13
7228.51 1.8569e-13
7245.18 1.8607e-13
7261.88 1.8644e-13
7278.62 1.8724e-13
7295.4 1.8167e-13
7312.22 1.893e-13
7329.07 1.9187e-13
7345.97 1.9493e-13
7362.9 1.8739e-13
7379.88 1.9347e-13
7396.89 1.8771e-13
7413.94 1.9114e-13
7431.03 1.8673e-13
7448.16 1.8971e-13
7465.33 1.9317e-13
7482.54 1.9134e-13
7499.79 1.8823e-13
7517.08 1.886e-13
7534.41 1.9161e-13
7551.77 1.9287e-13
7569.19 1.9149e-13
7586.63 1.9187e-13
7604.12 1.8744e-13
7621.65 1.8652e-13
7639.22 1.8264e-13
7656.83 1.8555e-13
7674.48 1.6342e-13
7692.17 1.7955e-13
7709.91 1.6789e-13
7727.68 1.7819e-13
7745.5 1.8062e-13
7763.35 1.7767e-13
7781.24 1.7158e-13
7799.18 1.7674e-13
7817.16 1.7709e-13
7835.18 1.7949e-13
7853.24 1.7985e-13
7871.35 1.7896e-13
7889.49 1.7808e-13
7907.68 1.7721e-13
7925.91 1.7192e-13
7944.18 1.7266e-13
7962.49 1.746e-13
7980.85 1.7616e-13
7999.25 1.761e-13
8017.69 1.7523e-13
8036.17 1.7158e-13
8054.7 1.7311e-13
8073.26 1.7831e-13
8091.87 1.7459e-13
8110.53 1.7737e-13
8129.22 1.7649e-13
8147.96 1.7643e-13
8166.75 1.7556e-13
8185.57 1.6838e-13
8204.44 1.5672e-13
8223.35 1.7258e-13
8242.31 1.682e-13
8261.31 1.7688e-13
8280.36 1.748e-13
8299.45 1.688e-13
8318.58 1.6913e-13
8337.75 1.6675e-13
8356.98 1.6824e-13
8376.24 1.7013e-13
8395.55 1.6316e-13
8414.9 1.704e-13
8434.3 1.6646e-13
8453.74 1.6299e-13
8473.23 1.6482e-13
8492.77 1.6743e-13
8512.34 1.5947e-13
8531.96 1.6578e-13
8551.63 1.0974e-13
8571.35 1.649e-13
8591.1 1.622e-13
8610.91 1.6177e-13
8630.76 1.6097e-13
8650.66 1.6277e-13
8670.6 1.1599e-13
8690.59 1.5677e-13
8710.62 1.5744e-13
8730.7 1.6104e-13
8750.83 1.5624e-13
8771.0 1.5982e-13
8791.22 1.6013e-13
8811.49 1.5823e-13
8831.8 1.5672e-13
8852.16 1.5811e-13
8872.56 1.4481e-13
8893.02 1.5369e-13
8913.52 1.5577e-13
8934.06 1.5464e-13
8954.66 1.5106e-13
8975.3 1.4554e-13
8995.99 1.4087e-13
9016.73 1.4576e-13
9037.52 1.5048e-13
9058.35 1.6193e-13
9079.23 1.4762e-13
9100.16 1.4655e-13
9121.14 1.5517e-13
9142.16 1.4543e-13
9163.24 1.3473e-13
9184.36 1.3222e-13
9205.53 1.4559e-13
9226.76 1.4189e-13
9248.03 1.4381e-13
9269.34 1.4609e-13
9290.72 1.4738e-13
9312.13 1.4937e-13
9333.6 1.4931e-13
9355.11 1.4857e-13
9376.68 1.4715e-13
9398.29 1.4777e-13
9419.96 1.4568e-13
9441.68 1.4596e-13
9463.44 1.4623e-13
9485.25 1.4584e-13
9507.12 1.4411e-13
9529.04 1.4306e-13
9551.0 1.3751e-13
9573.02 1.4196e-13
9595.09 1.4321e-13
9617.21 1.4217e-13
9639.38 1.4178e-13
9661.6 1.4042e-13
9683.87 1.4069e-13
9706.19 1.3966e-13
9728.57 1.3896e-13
9751.0 1.3826e-13
9773.47 1.382e-13
9796.01 1.3688e-13
9818.59 1.3777e-13
9841.22 1.3708e-13
9863.91 1.3576e-13
9886.65 1.3539e-13
9909.44 1.3471e-13
9932.28 1.3466e-13
9955.18 1.3429e-13
9978.13 1.3361e-13
10001.13 1.3294e-13
10024.18 1.3076e-13
10070.46 1.2856e-13
10116.94 1.2963e-13
10163.63 1.2803e-13
10234.09 1.2698e-13
10281.32 1.2629e-13
10305.02 1.2536e-13
10496.61 1.2067e-13
10691.76 1.1537e-13
10890.53 1.0992e-13
11093.0 1.0718e-13
11299.23 1.033e-13
11509.3 1.0118e-13
11696.31 9.7745e-14
11886.37 9.4426e-14
12107.35 9.1642e-14
12304.08 8.935e-14
12504.0 8.6915e-14
12707.18 8.4546e-14
12913.65 8.2053e-14
13093.3 8.037e-14
13306.05 7.8e-14
13491.15 7.6576e-14
13710.37 7.5006e-14
13901.1 7.2962e-14
14094.48 7.1137e-14
14290.56 6.9678e-14
14489.36 6.9039e-14
14690.93 6.7467e-14
14895.29 6.7003e-14
15102.5 6.6389e-14
15312.6 6.6236e-14
15489.92 6.578e-14
15705.4 6.4431e-14
15887.27 6.2675e-14
16108.28 6.2387e-14
16294.79 6.1957e-14
16483.48 6.013e-14
16712.79 5.8897e-14
16906.32 5.716e-14
17102.09 5.5602e-14
17300.11 5.3222e-14
17500.44 5.2011e-14
17703.09 5.0245e-14
17908.09 4.8763e-14
18115.44 4.6676e-14
18283.07 4.5614e-14
18494.78 4.4268e-14
18708.93 4.2471e-14
18882.04 4.1504e-14
19100.69 4.0466e-14
19321.87 3.9003e-14
19500.64 3.7419e-14
19681.09 3.6567e-14
19908.99 3.5489e-14
20093.19 3.4761e-14
20279.12 3.3581e-14
20513.95 3.2892e-14
20703.75 3.1922e-14
20895.33 3.1124e-14
21088.65 3.0415e-14
21283.8 2.9587e-14
21480.74 2.8847e-14
21679.48 2.7803e-14
21880.09 2.7296e-14
22082.53 2.6552e-14
22286.87 2.5828e-14
22493.1 2.5182e-14
22701.21 2.4496e-14
22911.27 2.2341e-14
23123.25 2.2136e-14
23283.54 1.9774e-14
23498.99 1.8884e-14
23716.41 1.9059e-14
23880.82 1.7624e-14
24101.77 1.7183e-14
24324.79 1.7065e-14
24493.39 1.6073e-14
24720.04 1.5999e-14
24891.38 1.4194e-14
25121.7 1.4031e-14
25295.83 1.4031e-14
25471.18 1.3839e-14
25706.85 1.3871e-14
25885.05 1.3555e-14
26124.58 1.3431e-14
26305.65 1.3095e-14
26487.98 1.2945e-14
26671.6 1.265e-14
26918.4 1.2477e-14
27104.98 1.2277e-14
27292.85 1.2025e-14
27482.05 1.1806e-14
27672.53 1.1564e-14
27928.59 1.1379e-14
28122.17 1.1145e-14
28317.12 1.0942e-14
28513.4 1.0718e-14
28711.06 1.0449e-14
28910.06 1.0282e-14
29110.47 1.0071e-14
29312.24 9.8649e-15
29515.44 9.6626e-15
29720.02 9.4644e-15
29926.04 9.2703e-15
30133.47 9.0802e-15
30272.54 8.8735e-15
30482.4 8.7316e-15
30693.68 8.5722e-15
30906.46 8.4158e-15
31120.68 8.2432e-15
31264.31 8.1114e-15
31481.04 7.945e-15
31699.25 7.8e-15
31918.99 7.6576e-15
32066.31 7.5352e-15
32288.61 7.4318e-15
32512.4 7.3977e-15
32662.46 7.5352e-15
32888.89 8.1301e-15
33116.85 8.0001e-15
33269.7 7.0973e-15
33500.33 6.7003e-15
33732.53 6.4579e-15
33888.26 6.2675e-15
34123.14 6.1248e-15
34280.63 5.9992e-15
34518.28 5.8626e-15
34677.59 5.7424e-15
34917.99 5.6246e-15
35079.15 5.5093e-15
35322.29 5.3963e-15
35485.36 5.2856e-15
35731.31 5.1772e-15
35896.27 5.0827e-15
36061.94 4.9899e-15
36311.9 4.8876e-15
36479.53 4.7873e-15
36732.38 4.6891e-15
36901.92 4.593e-15
37072.28 4.5091e-15
37329.23 4.4268e-15
37501.52 4.3161e-15
37674.65 4.2569e-15
37935.78 4.1792e-15
38110.87 4.1029e-15
38286.81 4.0373e-15
38463.52 3.9636e-15
38730.16 3.8823e-15
38908.92 3.8115e-15
39088.5 3.7419e-15
39268.91 3.6821e-15
39541.13 3.6066e-15
39723.63 3.5489e-15
39907.02 3.4761e-15
40091.21 3.4205e-15
40276.25 3.3658e-15
40462.14 3.2968e-15
40742.64 3.2516e-15
40930.68 3.1996e-15
41119.6 3.1484e-15
41309.43 3.0981e-15
41500.09 3.0486e-15
41691.63 2.9929e-15
41884.1 2.9518e-15
42077.41 2.898e-15
42271.62 2.8648e-15
42466.77 2.819e-15
42662.78 2.7739e-15
42859.68 2.6674e-15
43057.55 2.571e-15
43256.28 2.565e-15
43455.92 2.4666e-15
43656.5 2.416e-15
43858.04 2.3774e-15
44060.46 2.2966e-15
44263.82 2.2704e-15
44468.17 2.2341e-15
44673.41 2.1682e-15
44879.6 2.1632e-15
45086.79 2.1237e-15
45294.88 2.0706e-15
45503.94 2.0611e-15
45713.96 2.0375e-15
45925.0 1.982e-15
46136.97 1.982e-15
46349.91 1.9503e-15
46456.8 1.9279e-15
46671.22 1.9147e-15
46886.63 1.8884e-15
47103.03 1.8625e-15
47320.48 1.8582e-15
47538.89 1.8285e-15
47648.47 1.8076e-15
47868.44 1.791e-15
48089.38 1.7583e-15
48311.33 1.7624e-15
48534.31 1.7342e-15
48646.24 1.7104e-15
48870.76 1.6908e-15
49096.33 1.6715e-15
49322.93 1.6561e-15
49550.63 1.6372e-15
49664.85 1.6259e-15
49894.07 1.6073e-15
50124.41 1.5942e-15
50355.76 1.5812e-15
50471.83 1.5567e-15
50704.78 1.5476e-15
50821.66 1.5448e-15
50938.87 1.5385e-15
51056.28 1.5287e-15
51173.97 1.519e-15
51291.93 1.5128e-15
51410.16 1.5066e-15
51528.67 1.497e-15
51647.5 1.4978e-15
51766.55 1.4917e-15
51885.88 1.4822e-15
52005.48 1.4762e-15
52125.35 1.4702e-15
52245.51 1.4608e-15
52365.93 1.4549e-15
52486.7 1.4523e-15
52607.68 1.4497e-15
52728.95 1.4472e-15
52850.49 1.438e-15
52972.32 1.4255e-15
53094.42 1.4197e-15
53216.87 1.4172e-15
53339.54 1.4147e-15
53462.49 1.4122e-15
53585.72 1.4065e-15
53709.24 1.404e-15
53833.04 1.3983e-15
53957.13 1.3958e-15
54081.57 1.3902e-15
54206.23 1.3845e-15
54331.18 1.3789e-15
54456.42 1.3765e-15
54581.94 1.3773e-15
54707.76 1.3717e-15
54833.86 1.3693e-15
54960.32 1.3669e-15
55087.01 1.3613e-15
55213.99 1.3621e-15
55341.26 1.366e-15
55468.82 1.3604e-15
55596.68 1.3549e-15
55724.9 1.3588e-15
55853.35 1.3564e-15
55982.1 1.3541e-15
56111.14 1.3548e-15
56240.48 1.3556e-15
56370.12 1.3532e-15
56500.05 1.3571e-15
56630.35 1.361e-15
56760.89 1.3618e-15
56891.73 1.3594e-15
57022.87 1.3633e-15
57154.31 1.3704e-15
57286.05 1.3743e-15
57418.16 1.3814e-15
57550.52 1.3854e-15
57683.18 1.3894e-15
57816.14 1.3998e-15
57949.41 1.4103e-15
58082.99 1.4176e-15
58216.87 1.4283e-15
58351.13 1.439e-15
58485.63 1.4531e-15
58620.45 1.4708e-15
58755.57 1.4853e-15
58891.0 1.5033e-15
59115.37 1.1658e-15
59424.55 1.096e-15
59733.72 1.6281e-15
60042.89 1.6713e-15
60352.08 2.2756e-15
60661.25 2.3088e-15
60970.42 2.4794e-15
61279.61 2.6746e-15
61588.78 3.3394e-15
61897.95 4.9945e-15
62207.13 5.2274e-15
62516.3 3.6878e-15
62825.48 3.5481e-15
63134.66 2.8941e-15
63443.83 2.8939e-15
63753.02 2.5002e-15
64062.19 2.1145e-15
64371.36 1.8647e-15
64680.54 2.0147e-15
64989.71 2.0206e-15
65298.88 1.9652e-15
65608.07 1.6118e-15
65917.24 1.6102e-15
66226.41 1.5971e-15
66535.6 1.6917e-15
66844.77 1.7166e-15
67153.94 1.1675e-15
67463.12 1.3478e-15
67772.29 2.1667e-15
68081.48 1.8918e-15
68390.65 2.3081e-15
68699.82 2.0485e-15
69009.01 1.4525e-15
69318.17 1.8935e-15
69627.35 1.8598e-15
69936.53 2.2937e-15
70245.7 2.3748e-15
70554.88 2.6862e-15
70864.06 2.6008e-15
71173.23 2.7759e-15
71482.41 2.9368e-15
71791.58 2.4912e-15
72100.77 2.5144e-15
72409.93 2.4964e-15
72719.11 2.7369e-15
73028.3 2.9245e-15
73337.46 2.7253e-15
73646.64 2.4814e-15
73955.82 2.5867e-15
74264.99 3.1004e-15
74574.17 3.6048e-15
74883.34 4.4626e-15
75172.28 4.0977e-15
75192.52 3.8537e-15
75501.7 3.429e-15
75791.86 5.2973e-15
75810.87 3.7688e-15
76411.44 5.0735e-15
77031.02 5.4298e-15
77650.61 4.8891e-15
78270.19 5.3989e-15
78889.78 5.0087e-15
79509.36 4.4026e-15
80128.94 4.2723e-15
80748.54 3.6843e-15
81368.12 3.3747e-15
81987.7 3.3043e-15
82607.28 3.0061e-15
83226.86 3.0682e-15
83846.46 3.0821e-15
84466.04 2.9187e-15
85085.63 2.7541e-15
85705.2 3.1401e-15
86324.8 2.9136e-15
86944.37 2.475e-15
87563.96 2.007e-15
88183.55 1.4587e-15
88803.12 1.4858e-15
89422.7 1.2615e-15
90042.29 1.2786e-15
90661.87 1.0688e-15
91281.47 9.5745e-16
91901.05 9.2992e-16
92520.63 1.2544e-15
93140.22 1.1743e-15
93759.8 1.2626e-15
94379.38 9.9014e-16
94998.96 1.333e-15
95618.55 1.2379e-15
96238.13 9.5878e-16
96857.71 9.3794e-16
97477.31 9.8767e-16
98096.89 1.0071e-15
98716.47 9.4092e-16
99336.06 8.7679e-16
99955.6 1.085e-15
100575.23 9.0008e-16
101194.77 8.2297e-16
101814.42 8.1005e-16
102433.96 8.3507e-16
103053.6 9.6921e-16
103673.15 1.0017e-15
104292.7 9.3019e-16
104912.33 9.4512e-16
105531.87 1.109e-15
106151.52 9.8756e-16
106771.06 1.1053e-15
107390.6 1.2714e-15
108010.24 1.1218e-15
108629.79 1.2283e-15
109249.42 1.3527e-15
109868.96 1.5142e-15
110488.61 1.5651e-15
111108.15 1.8991e-15
111727.69 3.1098e-15
112347.34 3.9198e-15
112966.88 3.4638e-15
113586.52 2.5854e-15
114206.06 1.95e-15
114825.7 1.8307e-15
115445.24 1.6357e-15
116064.78 1.2094e-15
116684.43 1.2512e-15
117303.97 1.2206e-15
117923.61 1.347e-15
118543.15 1.4314e-15
119162.8 1.5316e-15
119782.34 1.5269e-15
120401.88 1.5171e-15
121021.53 1.4036e-15
121641.07 1.3953e-15
122260.7 1.3239e-15
122880.24 1.3634e-15
123499.8 1.4609e-15
124119.43 1.5477e-15
124738.97 1.5367e-15
125358.61 1.6441e-15
125978.16 1.6736e-15
126597.79 1.7263e-15
127217.34 1.8106e-15
127836.88 2.0411e-15
128456.52 1.7002e-15
129076.07 1.1174e-15
129695.71 8.9814e-16
130315.25 8.8008e-16
130934.79 8.7992e-16
131554.43 9.3937e-16
132173.98 8.1745e-16
132793.62 9.1389e-16
133413.15 7.3781e-16
134032.79 8.8338e-16
134652.34 8.8551e-16
135271.89 7.3754e-16
135891.53 7.7992e-16
136511.06 8.2229e-16
137130.71 7.5691e-16
137750.25 5.0625e-16
138369.9 6.5829e-16
138989.43 5.9184e-16
139608.98 6.5217e-16
140228.62 7.1334e-16
140848.17 7.6706e-16
141467.79 6.0615e-16
142087.34 6.444e-16
142706.98 6.637e-16
143326.53 5.6564e-16
143946.06 5.4137e-16
144565.72 5.7103e-16
145098.85 5.4736e-16
146013.73 4.7584e-16
146928.73 4.8748e-16
147843.63 4.8454e-16
148758.52 4.7131e-16
149673.42 5.0637e-16
150588.41 4.645e-16
151503.31 4.9409e-16
152418.2 4.8472e-16
153333.19 4.5626e-16
154248.09 4.7264e-16
155162.98 6.0102e-16
156077.88 6.3026e-16
156992.87 5.2869e-16
157907.77 5.4575e-16
158822.66 5.4445e-16
159737.65 5.9152e-16
160652.55 5.2378e-16
161567.44 5.4827e-16
162482.43 6.4237e-16
163397.33 8.0226e-16
164312.22 9.0646e-16
165227.12 8.3603e-16
166142.13 8.0304e-16
167057.0 7.7694e-16
167971.9 8.081e-16
168886.8 8.4569e-16
169801.79 9.8291e-16
170716.7 1.0259e-15
171631.6 8.7748e-16
172546.59 8.2725e-16
173461.48 8.4838e-16
174376.38 7.4701e-16
175291.37 6.626e-16
176206.26 5.9208e-16
177121.16 5.8297e-16
178036.04 5.512e-16
178951.04 5.0834e-16
179865.94 4.5714e-16
180780.82 4.8959e-16
181695.82 4.4595e-16
182610.72 4.3228e-16
183525.6 4.7378e-16
184440.6 4.3656e-16
185355.5 4.8117e-16
186270.4 6.1555e-16
187185.28 7.5647e-16
188100.28 6.0411e-16
189015.18 4.6148e-16
189930.06 4.6528e-16
190845.07 4.0717e-16
191759.97 4.2819e-16
192674.84 3.7767e-16
193589.75 4.0941e-16
194504.75 4.1814e-16
195419.64 4.3184e-16
196334.54 3.9774e-16
197249.54 3.7659e-16
198164.42 4.0088e-16
199079.32 3.8899e-16
199994.22 3.8776e-16
200909.22 3.6202e-16
201824.1 3.5934e-16
202739.0 3.8383e-16
203654.0 3.6401e-16
204751.68 3.7256e-16
206513.14 3.6782e-16
208275.66 3.6668e-16
210039.09 3.3969e-16
211803.62 3.5538e-16
213569.15 3.551e-16
215335.78 3.4725e-16
217103.3 3.3903e-16
218871.92 3.6044e-16
220641.56 3.6118e-16
222412.27 3.3968e-16
224183.99 3.4249e-16
225956.7 3.6849e-16
227730.5 3.515e-16
229505.31 3.5274e-16
231281.13 3.4919e-16
233058.03 3.4618e-16
234835.94 3.6278e-16
236614.93 3.5031e-16
238395.03 3.453e-16
240176.13 3.503e-16
241958.22 3.4788e-16
243741.42 3.3673e-16
245525.6 3.3441e-16
247311.0 3.2615e-16
249097.29 3.2377e-16
250884.65 3.3482e-16
252673.14 3.3682e-16
254462.72 3.2718e-16
256253.29 3.4287e-16
258044.96 3.53e-16
259837.73 3.611e-16
261631.6 3.333e-16
263426.48 3.1602e-16
265222.41 3.0998e-16
267019.51 3.1761e-16
268817.53 3.16e-16
270616.81 3.0464e-16
272417.05 2.965e-16
274218.41 3.1271e-16
276020.87 3.0834e-16
277824.42 2.9956e-16
279629.05 3.0854e-16
281434.78 3.5191e-16
283241.63 3.3066e-16
285049.58 3.0373e-16
286858.61 2.895e-16
288668.74 2.8947e-16
290479.96 2.9532e-16
292292.3 2.9219e-16
294105.73 2.9039e-16
295920.25 2.8888e-16
297735.96 2.8295e-16
299552.79 2.8907e-16
301370.58 2.8829e-16
303189.6 2.8932e-16
305009.7 2.8488e-16
306831.02 2.9962e-16
308653.34 2.8803e-16
310476.84 2.8175e-16
312301.53 2.9756e-16
314127.25 2.8252e-16
315954.15 2.8425e-16
317782.2 2.9193e-16
319611.29 2.9427e-16
321441.59 3.0935e-16
323273.1 3.032e-16
325105.65 3.0546e-16
326939.32 2.955e-16
328774.23 3.0747e-16
330610.3 3.1246e-16
332447.46 3.5338e-16
334285.75 5.2344e-16
336125.21 4.6537e-16
337965.9 3.13e-16
339807.74 2.9656e-16
341650.7 3.0381e-16
343494.78 3.0578e-16
345340.11 3.1019e-16
347186.59 4.9099e-16
349034.23 5.9194e-16
