# col1 col2
# An Atlas of Galaxy Spectral Energy Distributions from the Ultraviolet to the Mid-Infrared
# Brown et al. (2014)
# http://dx.doi.org/10.5072/03/529D3551F0117
# 
# Column 1 : Restframe Wavelength (Angstrom)
# Column 2 : Flux per unit wavelength (ergs/s/cm^2/Angstrom)
# Column 3 : Observed wavelength (Angstrom)
# Column 4 : Source (0 = model, 1 = Optical Spectrum, 2 = Akari, 3 = Spitzer IRS)
# 
102.0 1.2694e-20
103.9 1.5762e-20
106.08 1.9982e-20
108.05 2.5802e-20
110.06 3.7297e-20
113.92 5.4918e-20
117.93 7.5989e-20
120.95 2.8959e-19
124.92 3.7138e-19
126.95 4.0629e-19
128.12 4.3335e-19
131.1 4.8851e-19
132.01 5.8194e-19
133.85 6.2502e-19
136.97 8.071e-19
140.16 8.9321e-19
143.09 2.5644e-18
147.1 6.7924e-18
150.87 7.397e-18
155.1 8.1676e-18
159.08 9.0601e-18
162.04 9.6863e-18
165.81 1.0769e-17
170.07 1.1648e-17
172.83 1.2424e-17
176.85 1.3406e-17
180.14 1.4136e-17
181.81 1.4667e-17
186.04 1.5717e-17
190.82 1.7078e-17
193.92 1.8049e-17
197.98 1.912e-17
202.12 2.0348e-17
204.94 2.126e-17
210.19 2.1757e-17
216.08 2.4584e-17
220.1 2.6043e-17
223.16 2.6652e-17
226.79 2.8233e-17
229.94 4.363e-17
234.22 7.2082e-17
240.22 8.9719e-17
245.82 8.5494e-17
252.13 9.1621e-17
256.81 7.7811e-17
259.79 8.9964e-17
264.01 9.4647e-17
268.92 9.4875e-17
273.92 9.4885e-17
279.01 9.5114e-17
284.2 9.5125e-17
290.15 9.0855e-17
296.22 9.2556e-17
301.03 9.1506e-17
308.05 9.2793e-17
318.14 9.4538e-17
327.81 9.4123e-17
337.77 9.2852e-17
348.03 9.1387e-17
356.96 9.0358e-17
366.11 9.0168e-17
374.64 8.8538e-17
385.14 8.4378e-17
395.02 8.5767e-17
405.15 8.5391e-17
413.63 8.3463e-17
422.3 8.139e-17
430.15 7.9734e-17
441.18 7.8659e-17
451.46 7.6356e-17
459.85 7.4288e-17
469.48 7.2612e-17
480.42 7.1633e-17
490.47 6.8581e-17
499.59 6.8437e-17
506.54 6.6428e-17
512.41 7.1024e-17
519.54 6.9899e-17
530.42 6.7854e-17
540.28 6.4515e-17
550.32 6.5276e-17
560.55 6.6965e-17
569.66 6.8381e-17
580.25 6.5771e-17
589.68 6.8096e-17
600.64 6.5951e-17
610.4 6.2275e-17
620.32 7.0535e-17
630.4 7.0712e-17
640.64 7.0241e-17
649.56 7.2389e-17
658.59 7.341e-17
664.69 7.513e-17
675.49 7.3945e-17
684.88 7.1121e-17
694.41 8.2051e-17
705.69 7.7659e-17
715.51 8.5957e-17
725.47 8.7171e-17
735.56 8.8402e-17
745.79 9.5183e-17
754.43 9.8773e-17
764.92 9.9023e-17
775.56 1.076e-16
784.54 1.1192e-16
795.46 1.1535e-16
804.67 1.186e-16
815.86 1.2112e-16
825.31 1.301e-16
834.87 1.0529e-16
844.53 1.3288e-16
854.31 1.3476e-16
864.2 1.4343e-16
874.21 1.5231e-16
884.34 1.6437e-16
894.57 1.7216e-16
904.93 1.6789e-16
915.41 2.7234e-16
926.01 2.0616e-15
934.58 4.4802e-15
945.4 8.6775e-15
954.15 1.2837e-14
965.2 1.2929e-14
974.13 1.7284e-15
985.41 8.7854e-15
994.53 1.0711e-14
1006.04 1.8195e-14
1015.35 1.8282e-14
1024.75 8.1869e-15
1034.23 1.1251e-14
1043.8 2.4905e-14
1055.89 2.4401e-14
1065.66 1.7318e-14
1075.52 2.1907e-14
1085.47 1.5656e-14
1095.51 2.343e-14
1105.65 2.2329e-14
1115.88 2.0604e-14
1126.2 1.7908e-14
1134.01 2.5184e-14
1144.5 2.2295e-14
1155.09 2.4452e-14
1165.78 2.5027e-14
1173.86 1.5577e-14
1184.72 2.4131e-14
1195.68 1.4344e-14
1203.97 9.0315e-15
1215.11 7.6889e-15
1226.36 1.6142e-14
1234.86 2.6671e-14
1246.28 2.9454e-14
1254.92 2.7178e-14
1263.62 2.23e-14
1275.31 3.1218e-14
1284.15 3.3227e-14
1296.03 2.3367e-14
1305.02 2.2892e-14
1314.06 3.1533e-14
1326.22 2.9708e-14
1335.42 2.4601e-14
1344.67 3.2066e-14
1353.99 3.077e-14
1366.52 2.6196e-14
1375.99 2.8205e-14
1385.53 2.8406e-14
1395.14 2.4238e-14
1404.81 2.5153e-14
1414.55 2.5391e-14
1424.35 2.6716e-14
1434.22 2.6173e-14
1440.84 2.8114e-14
1447.49 2.8839e-14
1454.17 2.7608e-14
1464.25 2.4668e-14
1474.4 2.473e-14
1484.62 2.5605e-14
1494.92 2.6207e-14
1505.28 2.4238e-14
1512.23 2.0681e-14
1515.71 2.2835e-14
1526.22 2.1662e-14
1533.26 1.802e-14
1543.89 2.0838e-14
1554.59 1.9452e-14
1565.37 1.9591e-14
1576.22 2.1094e-14
1583.49 2.2606e-14
1594.47 2.3031e-14
1605.52 2.2668e-14
1616.65 2.2831e-14
1624.11 2.1115e-14
1635.37 2.2945e-14
1646.71 2.3323e-14
1654.31 2.1031e-14
1665.78 2.344e-14
1673.47 1.9954e-14
1677.32 2.3446e-14
1685.07 2.5069e-14
1696.75 2.3134e-14
1704.58 2.1944e-14
1716.39 2.0297e-14
1724.32 2.0207e-14
1736.27 2.1958e-14
1744.28 2.1314e-14
1756.37 2.3269e-14
1764.48 2.0695e-14
1776.71 2.128e-14
1784.91 2.1779e-14
1793.15 2.383e-14
1805.58 2.3563e-14
1813.91 2.115e-14
1826.49 2.1748e-14
1834.92 2.0582e-14
1843.39 1.856e-14
1856.17 1.8437e-14
1864.73 1.922e-14
1873.34 2.1421e-14
1886.33 1.9318e-14
1895.03 1.8494e-14
1903.78 1.9775e-14
1916.98 1.876e-14
1925.82 1.8464e-14
1934.71 1.9028e-14
1943.64 1.9975e-14
1957.12 1.8518e-14
1966.15 2.083e-14
1975.23 2.1417e-14
1984.34 2.0037e-14
1993.5 1.9361e-14
2002.7 2.0045e-14
2016.59 1.9017e-14
2025.89 2.0194e-14
2035.25 1.885e-14
2044.64 1.9924e-14
2054.08 1.8857e-14
2063.56 1.8774e-14
2073.08 2.0448e-14
2077.86 1.9395e-14
2082.65 2.0405e-14
2097.09 1.9048e-14
2106.77 1.9008e-14
2116.49 1.9232e-14
2126.26 1.9504e-14
2136.08 1.771e-14
2145.94 1.8463e-14
2155.84 1.9292e-14
2165.79 1.8513e-14
2175.79 1.8305e-14
2185.83 1.7933e-14
2195.92 1.8912e-14
2206.06 1.8274e-14
2216.24 1.7058e-14
2226.47 1.6369e-14
2236.75 1.7868e-14
2247.07 1.6861e-14
2257.44 1.5799e-14
2262.65 1.6311e-14
2273.09 1.6834e-14
2283.58 1.7414e-14
2294.12 1.6278e-14
2304.71 1.6229e-14
2315.35 1.5135e-14
2326.04 1.0982e-14
2336.77 1.3564e-14
2347.56 1.3064e-14
2352.97 1.4485e-14
2363.83 1.2871e-14
2374.74 1.3376e-14
2385.71 1.2162e-14
2396.72 1.3173e-14
2402.24 1.2489e-14
2413.33 1.2949e-14
2424.47 1.4058e-14
2435.66 1.3415e-14
2446.9 1.4364e-14
2452.54 1.4129e-14
2463.86 1.3925e-14
2475.24 1.3258e-14
2486.66 1.3588e-14
2492.39 1.2735e-14
2503.9 1.451e-14
2515.46 1.2369e-14
2527.07 1.2106e-14
2532.89 1.2412e-14
2544.58 1.2092e-14
2556.33 1.334e-14
2562.22 1.2735e-14
2574.05 1.3698e-14
2585.93 1.3376e-14
2597.87 1.3061e-14
2603.85 1.2468e-14
2615.87 1.2231e-14
2627.95 1.3005e-14
2634.01 1.3707e-14
2646.16 1.5226e-14
2652.26 1.5827e-14
2664.51 1.3679e-14
2676.81 1.4545e-14
2682.98 1.4472e-14
2695.36 1.362e-14
2707.8 1.4184e-14
2714.04 1.3171e-14
2726.57 1.307e-14
2732.86 1.387e-14
2745.47 1.1421e-14
2758.14 1.1786e-14
2764.5 1.2393e-14
2777.26 1.3086e-14
2783.66 1.2067e-14
2796.51 9.3378e-15
2802.96 1.0117e-14
2815.9 1.2755e-14
2822.39 1.3819e-14
2835.41 1.3247e-14
2841.95 1.2792e-14
2855.07 1.2038e-14
2868.25 1.3841e-14
2874.86 1.3962e-14
2888.13 1.3695e-14
2894.79 1.3595e-14
2908.15 1.5205e-14
2928.31 1.4368e-14
2948.61 1.4022e-14
2969.04 1.4428e-14
2989.62 1.4408e-14
3010.35 1.4655e-14
3031.21 1.4567e-14
3052.23 1.4513e-14
3073.38 1.4593e-14
3087.57 1.4747e-14
3108.97 1.4692e-14
3130.52 1.4403e-14
3152.22 1.4414e-14
3166.77 1.44e-14
3188.72 1.345e-14
3210.83 1.4062e-14
3233.08 1.3104e-14
3248.0 1.4221e-14
3270.52 1.48e-14
3293.19 1.4574e-14
3308.39 1.4559e-14
3323.66 1.4245e-14
3331.32 1.4503e-14
3339.0 1.3559e-14
3346.7 1.4588e-14
3354.42 1.3956e-14
3362.15 1.3259e-14
3369.9 1.3375e-14
3377.67 1.3585e-14
3385.45 1.3862e-14
3393.26 1.4574e-14
3401.08 1.5572e-14
3408.92 1.4032e-14
3416.78 1.3992e-14
3424.65 1.4881e-14
3432.55 1.536e-14
3440.46 1.4661e-14
3448.39 1.3425e-14
3456.34 1.3698e-14
3464.31 1.2985e-14
3472.3 1.4361e-14
3480.3 1.3181e-14
3488.32 1.3858e-14
3496.36 1.3629e-14
3504.42 1.4264e-14
3512.5 1.3772e-14
3520.6 1.4479e-14
3528.72 1.2957e-14
3536.85 1.4199e-14
3545.0 1.4826e-14
3553.18 1.4954e-14
3561.37 1.4572e-14
3569.58 1.3252e-14
3577.81 1.3062e-14
3586.05 1.224e-14
3594.32 1.3351e-14
3602.61 1.4665e-14
3610.91 1.3428e-14
3619.24 1.4118e-14
3627.58 1.4775e-14
3635.94 1.3221e-14
3643.51 1.5555e-14
3646.19 1.4791e-14
3648.86 1.5871e-14
3651.53 1.6609e-14
3654.21 1.2606e-14
3656.88 1.437e-14
3659.55 1.5956e-14
3662.22 1.5581e-14
3664.9 1.3999e-14
3667.57 1.4984e-14
3670.24 1.382e-14
3672.91 1.3047e-14
3675.59 1.555e-14
3678.26 1.4914e-14
3680.93 1.3323e-14
3683.61 1.3846e-14
3686.28 1.5172e-14
3688.95 1.5083e-14
3691.62 1.4148e-14
3694.3 1.371e-14
3696.97 1.4808e-14
3699.64 1.5685e-14
3702.31 1.3779e-14
3704.99 1.4222e-14
3707.66 1.3403e-14
3710.33 1.3362e-14
3713.0 1.4695e-14
3715.68 1.4747e-14
3718.35 1.3405e-14
3721.02 1.9745e-14
3723.7 2.4721e-14
3726.37 3.2311e-14
3729.04 3.7705e-14
3731.71 3.0954e-14
3734.39 2.4331e-14
3737.06 2.0302e-14
3739.73 1.5634e-14
3742.4 1.4788e-14
3745.08 1.588e-14
3747.75 1.4436e-14
3750.42 1.3308e-14
3753.1 1.2275e-14
3755.77 1.5744e-14
3758.44 1.5402e-14
3761.11 1.5301e-14
3763.79 1.6906e-14
3766.46 1.4699e-14
3769.13 1.6181e-14
3771.8 1.4355e-14
3774.48 1.5343e-14
3777.15 1.6926e-14
3779.82 1.7275e-14
3782.5 1.9642e-14
3785.17 2.0301e-14
3787.84 1.8018e-14
3790.51 1.7395e-14
3793.19 1.5902e-14
3795.86 1.5787e-14
3798.53 1.374e-14
3801.2 1.6036e-14
3803.88 1.5012e-14
3806.55 1.6002e-14
3809.22 1.7513e-14
3811.89 1.9237e-14
3814.57 1.7563e-14
3817.24 1.8163e-14
3819.91 1.8705e-14
3822.59 1.6331e-14
3825.26 1.4435e-14
3827.93 1.4585e-14
3830.6 1.4298e-14
3833.28 1.5187e-14
3835.95 1.3971e-14
3838.62 1.4495e-14
3841.29 1.4834e-14
3843.97 1.6031e-14
3846.64 1.5554e-14
3849.31 1.8927e-14
3851.99 1.7724e-14
3854.66 2.0895e-14
3857.33 2.0454e-14
3860.0 1.9926e-14
3862.68 2.4159e-14
3865.35 2.344e-14
3868.02 2.5077e-14
3870.69 2.5962e-14
3873.37 2.4006e-14
3876.04 2.1596e-14
3878.71 2.065e-14
3881.38 1.7862e-14
3884.06 1.7857e-14
3886.73 1.4636e-14
3889.4 1.6764e-14
3892.08 1.7685e-14
3894.75 1.6755e-14
3897.42 1.8234e-14
3900.09 1.7916e-14
3902.77 1.9794e-14
3905.44 2.1576e-14
3908.11 2.1423e-14
3910.78 2.1946e-14
3913.46 2.3803e-14
3916.13 2.4054e-14
3918.8 2.1043e-14
3921.48 2.1302e-14
3924.15 2.0233e-14
3926.82 1.9794e-14
3929.49 1.8676e-14
3932.17 1.9807e-14
3934.84 1.7782e-14
3937.51 1.8713e-14
3940.18 1.7775e-14
3942.86 1.8857e-14
3945.53 2.0952e-14
3948.2 2.1692e-14
3950.87 2.1151e-14
3953.55 2.162e-14
3956.22 2.086e-14
3958.89 1.975e-14
3961.57 1.7575e-14
3964.24 1.7821e-14
3966.91 1.7222e-14
3969.58 1.7846e-14
3972.26 1.6592e-14
3974.93 1.6748e-14
3977.6 1.7435e-14
3980.27 1.7336e-14
3982.95 1.9254e-14
3985.62 2.061e-14
3988.29 2.0819e-14
3990.97 2.2339e-14
3993.64 2.2135e-14
3996.31 2.1332e-14
3998.98 2.1841e-14
4001.66 2.1956e-14
4004.33 2.2179e-14
4007.0 2.1779e-14
4009.67 2.2487e-14
4012.35 2.0524e-14
4015.02 2.1712e-14
4017.69 2.202e-14
4020.36 2.3048e-14
4023.04 2.3964e-14
4025.71 2.3503e-14
4028.38 2.195e-14
4031.06 2.1907e-14
4033.73 2.2303e-14
4036.4 2.2659e-14
4039.07 2.1745e-14
4041.75 2.1004e-14
4044.42 2.2063e-14
4047.09 2.179e-14
4049.76 2.1989e-14
4052.44 2.2171e-14
4055.11 2.3943e-14
4057.78 2.3025e-14
4060.46 2.2605e-14
4063.13 2.3994e-14
4065.8 2.4099e-14
4068.47 2.4124e-14
4071.15 2.2595e-14
4073.82 2.3265e-14
4076.49 2.3253e-14
4079.16 2.3454e-14
4081.84 2.391e-14
4084.51 2.2945e-14
4087.18 2.3357e-14
4089.85 2.4182e-14
4092.53 2.3288e-14
4095.2 2.1565e-14
4097.87 2.1821e-14
4100.55 2.0289e-14
4103.22 2.034e-14
4105.89 2.0438e-14
4108.56 2.1325e-14
4111.24 2.1356e-14
4113.91 2.1082e-14
4116.58 2.1237e-14
4119.25 2.1696e-14
4121.93 2.4353e-14
4124.6 2.3531e-14
4127.27 2.261e-14
4129.95 2.2172e-14
4132.62 2.3382e-14
4135.29 2.2825e-14
4137.96 2.3003e-14
4140.64 2.3643e-14
4143.31 2.3495e-14
4145.98 2.2739e-14
4148.65 2.3652e-14
4151.33 2.3357e-14
4154.0 2.3382e-14
4156.67 2.3698e-14
4159.35 2.363e-14
4162.02 2.3304e-14
4164.69 2.2144e-14
4167.36 2.2713e-14
4170.04 2.3166e-14
4172.71 2.1032e-14
4175.38 2.0451e-14
4178.05 2.2057e-14
4180.73 2.0764e-14
4183.4 2.221e-14
4186.07 2.1309e-14
4188.74 2.1452e-14
4191.42 2.3123e-14
4194.09 2.2037e-14
4196.76 2.1568e-14
4199.44 2.1779e-14
4202.11 2.2934e-14
4204.78 2.0655e-14
4207.45 2.2509e-14
4210.13 2.2945e-14
4212.8 2.3386e-14
4215.47 2.2902e-14
4218.14 2.3165e-14
4220.82 2.3105e-14
4223.49 2.2358e-14
4226.16 2.2717e-14
4228.84 2.1177e-14
4231.51 2.192e-14
4234.18 2.1872e-14
4236.85 2.3945e-14
4239.53 2.3382e-14
4242.2 2.0543e-14
4244.87 2.217e-14
4247.54 2.0587e-14
4250.22 2.369e-14
4252.89 2.339e-14
4255.56 2.2977e-14
4258.23 2.2972e-14
4260.91 2.2793e-14
4263.58 2.3467e-14
4266.25 2.3135e-14
4268.93 2.3494e-14
4271.6 2.3661e-14
4274.27 2.2056e-14
4276.94 2.1149e-14
4279.62 2.3276e-14
4282.29 2.3147e-14
4284.96 2.3473e-14
4287.63 2.1739e-14
4290.31 2.1653e-14
4292.98 2.1228e-14
4295.65 2.2506e-14
4298.33 2.0581e-14
4301.0 2.2041e-14
4303.67 1.9647e-14
4306.34 1.9766e-14
4309.02 1.9147e-14
4311.69 2.0528e-14
4314.36 2.046e-14
4317.03 2.3843e-14
4319.71 2.193e-14
4322.38 2.3311e-14
4325.05 2.3168e-14
4327.72 2.326e-14
4330.4 2.3821e-14
4333.07 2.2289e-14
4335.74 2.2881e-14
4338.42 2.3428e-14
4341.09 2.5558e-14
4343.76 2.4352e-14
4346.43 2.3334e-14
4349.11 2.1413e-14
4351.78 2.1568e-14
4354.45 2.2622e-14
4357.12 2.363e-14
4359.8 2.4314e-14
4362.47 2.3124e-14
4365.14 2.5274e-14
4367.82 2.4911e-14
4370.49 2.4455e-14
4373.16 2.1844e-14
4375.83 2.3179e-14
4378.51 2.2338e-14
4381.18 2.3056e-14
4383.85 2.4027e-14
4386.52 2.3053e-14
4389.2 2.3191e-14
4391.87 2.2635e-14
4394.54 2.2095e-14
4397.21 2.3782e-14
4399.89 2.3627e-14
4402.56 2.4218e-14
4405.23 2.3143e-14
4407.91 2.2429e-14
4410.58 2.3001e-14
4413.25 2.2865e-14
4415.92 2.3156e-14
4418.6 2.2716e-14
4421.27 2.231e-14
4423.94 2.409e-14
4426.61 2.373e-14
4429.29 2.282e-14
4431.96 2.359e-14
4434.63 2.333e-14
4437.31 2.4778e-14
4439.98 2.3608e-14
4442.65 2.3238e-14
4445.32 2.3784e-14
4448.0 2.5137e-14
4450.67 2.4979e-14
4453.34 2.4303e-14
4456.01 2.357e-14
4458.69 2.2556e-14
4461.36 2.2002e-14
4464.03 2.3565e-14
4466.7 2.3972e-14
4469.38 2.4322e-14
4472.05 2.5345e-14
4474.72 2.4555e-14
4477.4 2.3754e-14
4480.07 2.3685e-14
4482.74 2.4216e-14
4485.41 2.5346e-14
4488.09 2.5252e-14
4490.76 2.3925e-14
4493.43 2.507e-14
4496.1 2.4408e-14
4498.78 2.4667e-14
4501.45 2.5067e-14
4504.12 2.5639e-14
4506.8 2.5222e-14
4509.47 2.657e-14
4512.14 2.7585e-14
4514.81 2.711e-14
4517.49 2.6146e-14
4520.16 2.5843e-14
4522.83 2.5463e-14
4525.5 2.4692e-14
4528.18 2.4035e-14
4530.85 2.3559e-14
4533.52 2.4245e-14
4536.19 2.3511e-14
4538.87 2.4516e-14
4541.54 2.4049e-14
4544.21 2.3859e-14
4546.89 2.511e-14
4549.56 2.3871e-14
4552.23 2.4653e-14
4554.9 2.4674e-14
4557.58 2.4146e-14
4560.25 2.4683e-14
4562.92 2.5234e-14
4565.59 2.5148e-14
4568.27 2.6073e-14
4570.94 2.6008e-14
4573.61 2.4666e-14
4576.29 2.4898e-14
4578.96 2.5711e-14
4581.63 2.493e-14
4584.3 2.522e-14
4586.98 2.5195e-14
4589.65 2.5347e-14
4592.32 2.5618e-14
4594.99 2.5137e-14
4597.67 2.5018e-14
4600.34 2.5388e-14
4603.01 2.56e-14
4605.69 2.6077e-14
4608.36 2.5993e-14
4611.03 2.6408e-14
4613.7 2.6343e-14
4616.38 2.591e-14
4619.05 2.6793e-14
4621.72 2.7133e-14
4624.39 2.6958e-14
4627.07 2.7242e-14
4629.74 2.7404e-14
4632.41 2.7353e-14
4635.08 2.6115e-14
4637.76 2.5552e-14
4640.43 2.6441e-14
4643.1 2.6253e-14
4645.78 2.5134e-14
4648.45 2.4834e-14
4651.12 2.6216e-14
4653.79 2.5118e-14
4656.47 2.5327e-14
4659.14 2.6443e-14
4661.81 2.6778e-14
4664.48 2.5456e-14
4667.16 2.4494e-14
4669.83 2.5246e-14
4672.5 2.5938e-14
4675.18 2.6561e-14
4677.85 2.5374e-14
4680.52 2.5464e-14
4683.19 2.6e-14
4685.87 2.6344e-14
4688.54 2.7005e-14
4691.21 2.6782e-14
4693.88 2.6364e-14
4696.56 2.5668e-14
4699.23 2.4619e-14
4701.9 2.4024e-14
4704.57 2.3756e-14
4707.25 2.3381e-14
4709.92 2.3622e-14
4712.59 2.397e-14
4715.27 2.4714e-14
4717.94 2.4503e-14
4720.61 2.4549e-14
4723.28 2.5651e-14
4725.96 2.5004e-14
4728.63 2.5313e-14
4731.3 2.3852e-14
4733.97 2.3256e-14
4736.65 2.3376e-14
4739.32 2.4593e-14
4741.99 2.4587e-14
4744.67 2.4539e-14
4747.34 2.531e-14
4750.01 2.5455e-14
4752.68 2.4668e-14
4755.36 2.5579e-14
4758.03 2.4695e-14
4760.7 2.3503e-14
4763.37 2.3936e-14
4766.05 2.3535e-14
4768.72 2.4255e-14
4771.39 2.3958e-14
4774.06 2.4457e-14
4776.74 2.4488e-14
4779.41 2.5534e-14
4782.08 2.5065e-14
4784.76 2.5053e-14
4787.43 2.4466e-14
4790.1 2.5048e-14
4792.77 2.4168e-14
4795.45 2.3645e-14
4798.12 2.5148e-14
4800.79 2.518e-14
4803.46 2.4494e-14
4806.14 2.4626e-14
4808.81 2.5916e-14
4811.48 2.4597e-14
4814.16 2.3726e-14
4816.83 2.4461e-14
4819.5 2.5034e-14
4822.17 2.4953e-14
4824.85 2.4326e-14
4827.52 2.448e-14
4830.19 2.3895e-14
4832.86 2.5057e-14
4835.54 2.3759e-14
4838.21 2.4563e-14
4840.88 2.4432e-14
4843.55 2.3883e-14
4846.23 2.4609e-14
4848.9 2.4981e-14
4851.57 2.4672e-14
4854.25 2.5055e-14
4856.92 2.7585e-14
4859.59 3.2185e-14
4862.26 3.5495e-14
4864.94 3.5218e-14
4867.61 2.9699e-14
4870.28 2.5137e-14
4872.95 2.207e-14
4875.63 2.1612e-14
4878.3 2.1622e-14
4880.97 2.2933e-14
4883.65 2.2588e-14
4886.32 2.3166e-14
4888.99 2.3016e-14
4891.66 2.3894e-14
4894.34 2.184e-14
4897.01 2.4899e-14
4899.68 2.4046e-14
4902.35 2.35e-14
4905.03 2.3907e-14
4907.7 2.4234e-14
4910.37 2.3454e-14
4913.04 2.2462e-14
4915.72 2.2979e-14
4918.39 2.1784e-14
4921.06 2.2966e-14
4923.74 2.2578e-14
4926.41 2.3219e-14
4929.08 2.4788e-14
4931.75 2.5616e-14
4934.43 2.4934e-14
4937.1 2.7147e-14
4939.77 2.6871e-14
4942.44 2.7394e-14
4945.12 2.8451e-14
4947.79 2.9536e-14
4950.46 3.0754e-14
4953.14 3.312e-14
4955.81 3.6493e-14
4958.48 4.0366e-14
4961.15 4.2245e-14
4963.83 4.1163e-14
4966.5 3.4767e-14
4969.17 2.8948e-14
4971.84 2.7449e-14
4974.52 2.6032e-14
4977.19 2.5958e-14
4979.86 2.8555e-14
4982.54 2.8307e-14
4985.21 3.0777e-14
4987.88 3.2908e-14
4990.55 3.5476e-14
4993.23 3.794e-14
4995.9 3.98e-14
4998.57 4.289e-14
5001.24 4.9362e-14
5003.92 6.0681e-14
5006.59 7.3901e-14
5009.26 8.1633e-14
5011.93 7.117e-14
5014.61 5.3986e-14
5017.28 3.7495e-14
5019.95 2.8068e-14
5022.63 2.5878e-14
5025.3 2.4285e-14
5027.97 2.1494e-14
5030.64 2.3966e-14
5033.32 2.2699e-14
5035.99 2.3323e-14
5038.66 2.3076e-14
5041.33 2.3659e-14
5044.01 2.3966e-14
5046.68 2.2805e-14
5049.35 2.2483e-14
5052.03 2.2484e-14
5054.7 2.407e-14
5057.37 2.3745e-14
5060.04 2.3123e-14
5062.72 2.3872e-14
5065.39 2.3313e-14
5068.06 2.3054e-14
5070.73 2.4231e-14
5073.41 2.2203e-14
5076.08 2.2026e-14
5078.75 2.1732e-14
5081.42 2.2128e-14
5084.1 2.0863e-14
5086.77 2.1946e-14
5089.44 2.2843e-14
5092.12 2.3736e-14
5094.79 2.3868e-14
5097.46 2.2899e-14
5100.13 2.3785e-14
5102.81 2.2862e-14
5105.48 2.2572e-14
5108.15 2.1476e-14
5110.82 2.2474e-14
5113.5 2.2361e-14
5116.17 2.2591e-14
5118.84 2.213e-14
5121.52 2.3505e-14
5124.19 2.1598e-14
5126.86 2.2249e-14
5129.53 2.2755e-14
5132.21 2.3031e-14
5134.88 2.2828e-14
5137.55 2.2878e-14
5140.22 2.3913e-14
5142.9 2.3144e-14
5145.57 2.2099e-14
5148.24 2.2263e-14
5150.91 2.278e-14
5153.59 2.1397e-14
5156.26 2.2553e-14
5158.93 2.339e-14
5161.61 2.2915e-14
5164.28 2.2277e-14
5166.95 2.122e-14
5169.62 2.0126e-14
5172.3 1.9132e-14
5174.97 2.2094e-14
5177.64 2.1045e-14
5180.31 2.0651e-14
5182.99 2.1663e-14
5185.66 2.076e-14
5188.33 2.0502e-14
5191.01 2.2275e-14
5193.68 2.2715e-14
5196.35 2.3707e-14
5199.02 2.3887e-14
5201.7 2.3318e-14
5204.37 2.4493e-14
5207.04 2.2476e-14
5209.71 2.2059e-14
5212.39 2.2308e-14
5215.06 2.3201e-14
5217.73 2.191e-14
5220.4 2.4096e-14
5223.08 2.2494e-14
5225.75 2.2656e-14
5228.42 2.2838e-14
5231.1 2.1879e-14
5233.77 2.2013e-14
5236.44 2.3812e-14
5239.11 2.3214e-14
5241.79 2.165e-14
5244.46 2.2866e-14
5247.13 2.3435e-14
5249.8 2.2939e-14
5252.48 2.2329e-14
5255.15 2.3036e-14
5257.82 2.3445e-14
5260.5 2.3023e-14
5263.17 2.16e-14
5265.84 2.2042e-14
5268.51 2.1308e-14
5271.19 2.0798e-14
5273.86 2.0761e-14
5276.53 2.2274e-14
5279.2 2.2356e-14
5281.88 2.2707e-14
5284.55 2.296e-14
5287.22 2.35e-14
5289.89 2.4337e-14
5292.57 2.3617e-14
5295.24 2.3738e-14
5297.91 2.3908e-14
5300.59 2.2349e-14
5303.26 2.4061e-14
5305.93 2.3514e-14
5308.6 2.4036e-14
5311.28 2.4375e-14
5313.95 2.29e-14
5316.62 2.303e-14
5319.29 2.4584e-14
5321.97 2.4347e-14
5324.64 2.1707e-14
5327.31 2.3284e-14
5329.99 2.2104e-14
5332.66 2.279e-14
5335.33 2.29e-14
5338.0 2.3642e-14
5340.68 2.3414e-14
5343.35 2.3641e-14
5346.02 2.3499e-14
5348.69 2.2774e-14
5351.37 2.3112e-14
5354.04 2.301e-14
5356.71 2.3373e-14
5359.39 2.4455e-14
5362.06 2.4052e-14
5364.73 2.482e-14
5367.4 2.3513e-14
5370.08 2.2126e-14
5372.75 2.3292e-14
5375.42 2.3107e-14
5378.09 2.2997e-14
5380.77 2.3978e-14
5383.44 2.361e-14
5386.11 2.4157e-14
5388.78 2.3981e-14
5391.46 2.3601e-14
5394.13 2.2788e-14
5396.8 2.2374e-14
5399.48 2.1642e-14
5402.15 2.2594e-14
5404.82 2.2444e-14
5407.49 2.1592e-14
5410.17 2.2159e-14
5412.84 2.0944e-14
5415.51 2.2598e-14
5418.18 2.3231e-14
5420.86 2.2725e-14
5423.53 2.2727e-14
5426.2 2.3352e-14
5428.88 2.4327e-14
5431.55 2.4179e-14
5434.22 2.3366e-14
5436.89 2.2864e-14
5439.57 2.3212e-14
5442.24 2.3163e-14
5444.91 2.4131e-14
5447.58 2.4392e-14
5450.26 2.3184e-14
5452.93 2.2728e-14
5455.6 2.3019e-14
5458.27 2.3314e-14
5460.95 2.3406e-14
5463.62 2.2302e-14
5466.29 2.2418e-14
5468.97 2.276e-14
5471.64 2.3123e-14
5474.31 2.3284e-14
5476.98 2.3474e-14
5479.66 2.2406e-14
5482.33 2.2481e-14
5485.0 2.3508e-14
5487.67 2.2482e-14
5490.35 2.2629e-14
5493.02 2.3687e-14
5495.69 2.281e-14
5498.37 2.4084e-14
5501.04 2.3276e-14
5503.71 2.3371e-14
5506.38 2.367e-14
5509.06 2.2884e-14
5511.73 2.3053e-14
5514.4 2.3772e-14
5517.07 2.3436e-14
5519.75 2.3955e-14
5522.42 2.3173e-14
5525.09 2.2479e-14
5527.76 2.2348e-14
5530.44 2.3919e-14
5533.11 2.4171e-14
5535.78 2.3828e-14
5538.46 2.2778e-14
5541.13 2.3655e-14
5543.8 2.3783e-14
5546.47 2.3279e-14
5549.15 2.2876e-14
5551.82 2.3403e-14
5554.49 2.419e-14
5557.16 2.3701e-14
5559.84 2.368e-14
5562.51 2.4555e-14
5565.18 2.3056e-14
5567.86 2.2531e-14
5570.53 2.3703e-14
5573.2 2.2958e-14
5575.87 2.2275e-14
5578.55 2.2759e-14
5581.22 2.3357e-14
5583.89 2.2399e-14
5586.56 2.1459e-14
5589.24 2.0705e-14
5591.91 2.1448e-14
5594.58 2.1686e-14
5597.25 2.3002e-14
5599.93 2.1981e-14
5602.6 2.2112e-14
5605.27 2.1958e-14
5607.95 2.3603e-14
5610.62 2.3636e-14
5613.29 2.3535e-14
5615.96 2.359e-14
5618.64 2.216e-14
5621.31 2.2356e-14
5623.98 2.213e-14
5626.65 2.1842e-14
5629.33 2.2964e-14
5632.0 2.328e-14
5634.67 2.3574e-14
5637.35 2.2809e-14
5640.02 2.3358e-14
5642.69 2.2734e-14
5645.36 2.222e-14
5648.04 2.3103e-14
5650.71 2.2885e-14
5653.38 2.3257e-14
5656.05 2.3984e-14
5658.73 2.2843e-14
5661.4 2.1602e-14
5664.07 2.3491e-14
5666.74 2.3338e-14
5669.42 2.3695e-14
5672.09 2.3229e-14
5674.76 2.2371e-14
5677.44 2.4456e-14
5680.11 2.4064e-14
5682.78 2.3591e-14
5685.45 2.2785e-14
5688.13 2.196e-14
5690.8 2.2432e-14
5693.47 2.2458e-14
5696.14 2.3122e-14
5698.82 2.2546e-14
5701.49 2.2974e-14
5704.16 2.3545e-14
5706.84 2.3205e-14
5709.51 2.1573e-14
5712.18 2.1207e-14
5714.85 2.1721e-14
5717.53 2.2435e-14
5720.2 2.4029e-14
5722.87 2.253e-14
5725.54 2.2875e-14
5728.22 2.4438e-14
5730.89 2.3425e-14
5733.56 2.262e-14
5736.24 2.3395e-14
5738.91 2.361e-14
5741.58 2.4765e-14
5744.25 2.4011e-14
5746.93 2.3304e-14
5749.6 2.3592e-14
5752.27 2.3841e-14
5754.94 2.2749e-14
5757.62 2.3757e-14
5760.29 2.2826e-14
5762.96 2.2886e-14
5765.63 2.3266e-14
5768.31 2.3242e-14
5770.98 2.3144e-14
5773.65 2.3536e-14
5776.33 2.2841e-14
5779.0 2.1987e-14
5781.67 2.2604e-14
5784.34 2.2172e-14
5787.02 2.117e-14
5789.69 2.403e-14
5792.36 2.3365e-14
5795.03 2.388e-14
5797.71 2.4147e-14
5800.38 2.3866e-14
5803.05 2.4093e-14
5805.73 2.2294e-14
5808.4 2.2281e-14
5811.07 2.2152e-14
5813.74 2.3084e-14
5816.42 2.2909e-14
5819.09 2.3404e-14
5821.76 2.3569e-14
5824.43 2.2599e-14
5827.11 2.3172e-14
5829.78 2.3675e-14
5832.45 2.4674e-14
5835.12 2.5235e-14
5837.8 2.4253e-14
5840.47 2.3392e-14
5843.14 2.2036e-14
5845.82 2.2709e-14
5848.49 2.3637e-14
5851.16 2.3205e-14
5853.83 2.3048e-14
5856.51 2.2753e-14
5859.18 2.2457e-14
5861.85 2.1969e-14
5864.52 2.1797e-14
5867.2 2.3201e-14
5869.87 2.3676e-14
5872.54 2.4483e-14
5875.22 2.5469e-14
5877.89 2.5554e-14
5880.56 2.4971e-14
5883.23 2.4769e-14
5885.91 2.3296e-14
5888.58 2.2096e-14
5891.25 2.1839e-14
5893.92 2.0857e-14
5896.6 2.1434e-14
5899.27 2.0947e-14
5901.94 2.199e-14
5904.61 2.1736e-14
5907.29 2.1339e-14
5909.96 2.0944e-14
5912.63 2.1925e-14
5915.31 2.2484e-14
5917.98 2.3033e-14
5920.65 2.3182e-14
5923.32 2.1954e-14
5926.0 2.2161e-14
5928.67 2.1273e-14
5931.34 2.1969e-14
5934.01 2.2036e-14
5936.69 2.1038e-14
5939.36 2.2022e-14
5942.03 2.2202e-14
5944.71 2.295e-14
5947.38 2.1771e-14
5950.05 2.2266e-14
5952.72 2.2003e-14
5955.4 2.2719e-14
5958.07 2.1673e-14
5960.74 2.1728e-14
5963.41 2.3023e-14
5966.09 2.2506e-14
5968.76 2.2948e-14
5971.43 2.2862e-14
5974.1 2.1992e-14
5976.78 2.2684e-14
5979.45 2.251e-14
5982.12 2.2147e-14
5984.8 2.2363e-14
5987.47 2.2443e-14
5990.14 2.2155e-14
5992.81 2.1775e-14
5995.49 2.1277e-14
5998.16 2.2083e-14
6000.83 2.2121e-14
6003.5 2.2127e-14
6006.18 2.1564e-14
6008.85 2.2737e-14
6011.52 2.1392e-14
6014.2 2.1496e-14
6016.87 2.1405e-14
6019.54 2.1786e-14
6022.21 2.1912e-14
6024.89 2.1401e-14
6027.56 2.1874e-14
6030.23 2.2606e-14
6032.9 2.3106e-14
6035.58 2.2123e-14
6038.25 2.2871e-14
6040.92 2.2637e-14
6043.59 2.2127e-14
6046.27 2.3498e-14
6048.94 2.3435e-14
6051.61 2.3362e-14
6054.29 2.2862e-14
6056.96 2.3521e-14
6059.63 2.396e-14
6062.3 2.2758e-14
6064.98 2.2641e-14
6067.65 2.1676e-14
6070.32 2.2835e-14
6072.99 2.2424e-14
6075.67 2.233e-14
6078.34 2.4799e-14
6081.01 2.427e-14
6083.69 2.3399e-14
6086.36 2.3174e-14
6089.03 2.2596e-14
6091.7 2.1901e-14
6094.38 2.1143e-14
6097.05 2.1986e-14
6099.72 2.3183e-14
6102.39 2.3668e-14
6105.07 2.1123e-14
6107.74 2.1168e-14
6110.41 2.2185e-14
6113.09 2.2408e-14
6115.76 2.2407e-14
6118.43 2.1544e-14
6121.1 2.3038e-14
6123.78 2.2448e-14
6126.45 2.1862e-14
6129.12 2.1162e-14
6131.79 2.2917e-14
6134.47 2.2189e-14
6137.14 2.2251e-14
6139.81 2.1346e-14
6142.48 2.1971e-14
6145.16 2.2012e-14
6147.83 2.2356e-14
6150.5 2.1657e-14
6153.18 2.062e-14
6155.85 2.1583e-14
6158.52 2.242e-14
6161.19 2.1591e-14
6163.87 2.181e-14
6166.54 2.1131e-14
6169.21 2.0429e-14
6171.88 2.0737e-14
6174.56 2.0902e-14
6177.23 2.0647e-14
6179.9 2.145e-14
6182.58 2.1966e-14
6185.25 2.0759e-14
6187.92 2.14e-14
6190.59 2.1076e-14
6193.27 2.1743e-14
6195.94 2.0437e-14
6198.61 2.1428e-14
6201.28 2.0885e-14
6203.96 2.2112e-14
6206.63 2.2763e-14
6209.3 2.1958e-14
6211.97 2.1912e-14
6214.65 2.1979e-14
6217.32 2.1334e-14
6219.99 2.0012e-14
6222.67 2.0555e-14
6225.34 2.1146e-14
6228.01 2.0658e-14
6230.68 2.0476e-14
6233.36 2.1182e-14
6236.03 2.1721e-14
6238.7 2.1343e-14
6241.37 2.0941e-14
6244.05 2.152e-14
6246.72 2.1486e-14
6249.39 2.1305e-14
6252.07 2.0821e-14
6254.74 2.0421e-14
6257.41 2.0024e-14
6260.08 1.9604e-14
6262.76 2.1297e-14
6265.43 2.1713e-14
6268.1 2.1401e-14
6270.77 2.19e-14
6273.45 2.1832e-14
6276.12 2.3365e-14
6278.79 2.2451e-14
6281.46 2.2349e-14
6284.14 2.1757e-14
6286.81 2.1331e-14
6289.48 2.1764e-14
6292.16 2.0925e-14
6294.83 2.1926e-14
6297.5 2.2932e-14
6300.17 2.4749e-14
6302.85 2.5216e-14
6305.52 2.4511e-14
6308.19 2.415e-14
6310.86 2.4185e-14
6313.54 2.2542e-14
6316.21 2.2001e-14
6318.88 2.1152e-14
6321.56 2.0181e-14
6324.23 2.1507e-14
6326.9 2.041e-14
6329.57 2.0776e-14
6332.25 2.2833e-14
6334.92 2.0779e-14
6337.59 2.2338e-14
6340.26 2.1221e-14
6342.94 2.2784e-14
6345.61 2.2167e-14
6348.28 2.1733e-14
6350.95 2.0152e-14
6353.63 1.9983e-14
6356.3 2.1255e-14
6358.97 2.1965e-14
6361.65 2.1491e-14
6364.32 2.0969e-14
6366.99 2.3421e-14
6369.66 2.114e-14
6372.34 2.0754e-14
6375.01 2.03e-14
6377.68 2.1783e-14
6380.35 2.0355e-14
6383.03 2.0982e-14
6385.7 2.2498e-14
6388.37 2.1755e-14
6391.05 2.0583e-14
6393.72 1.9387e-14
6396.39 2.0374e-14
6399.06 1.9336e-14
6401.74 2.0981e-14
6404.41 2.1184e-14
6407.08 2.0368e-14
6409.75 2.2109e-14
6412.43 2.2409e-14
6415.1 2.1767e-14
6417.77 2.1726e-14
6420.44 2.185e-14
6423.12 2.1422e-14
6425.79 2.0983e-14
6428.46 2.1356e-14
6431.14 2.0979e-14
6433.81 2.0673e-14
6436.48 2.1061e-14
6439.15 2.184e-14
6441.83 2.1889e-14
6444.5 2.0996e-14
6447.17 2.1153e-14
6449.84 2.1881e-14
6452.52 2.205e-14
6455.19 2.1409e-14
6457.86 2.0883e-14
6460.54 2.2081e-14
6463.21 2.2186e-14
6465.88 2.1227e-14
6468.55 2.1836e-14
6471.23 2.2826e-14
6473.9 2.2966e-14
6476.57 2.2805e-14
6479.24 2.2034e-14
6481.92 2.1843e-14
6484.59 2.1778e-14
6487.26 2.2523e-14
6489.94 2.2289e-14
6492.61 2.2286e-14
6495.28 2.0818e-14
6497.95 2.0742e-14
6500.63 2.1876e-14
6503.3 2.2126e-14
6505.97 2.1265e-14
6508.64 2.1916e-14
6511.32 2.2946e-14
6513.99 2.1543e-14
6516.66 2.2117e-14
6519.33 2.2813e-14
6522.01 2.3253e-14
6524.68 2.2678e-14
6527.35 2.3677e-14
6530.03 2.3944e-14
6532.7 2.4523e-14
6535.37 2.3589e-14
6538.04 2.5564e-14
6540.72 2.6993e-14
6543.39 2.8763e-14
6546.06 3.2352e-14
6548.73 3.9103e-14
6551.41 3.7864e-14
6554.08 3.7715e-14
6556.75 4.3191e-14
6559.43 5.7973e-14
6562.1 7.9911e-14
6564.77 9.1222e-14
6567.44 7.6119e-14
6570.12 5.1583e-14
6572.79 3.6436e-14
6575.46 3.2247e-14
6578.13 3.5132e-14
6580.81 4.6295e-14
6583.48 5.7394e-14
6586.15 5.912e-14
6588.82 5.1143e-14
6591.5 3.7956e-14
6594.17 3.176e-14
6596.84 2.6555e-14
6599.52 2.4396e-14
6602.19 2.3146e-14
6604.86 2.1388e-14
6607.53 2.3686e-14
6610.21 2.2009e-14
6612.88 2.2929e-14
6615.55 2.4639e-14
6618.22 2.3354e-14
6620.9 2.3355e-14
6623.57 2.2259e-14
6626.24 2.2059e-14
6628.92 2.1539e-14
6631.59 2.2598e-14
6634.26 2.3246e-14
6636.93 2.3901e-14
6646.86 2.0899e-14
6662.18 2.0756e-14
6677.54 2.0805e-14
6692.94 2.0615e-14
6708.37 2.0616e-14
6723.83 1.9508e-14
6739.33 2.0335e-14
6754.87 1.9827e-14
6770.44 2.0384e-14
6786.05 2.062e-14
6801.69 1.9921e-14
6817.37 2.0153e-14
6833.08 2.0293e-14
6848.84 1.9381e-14
6864.62 1.9471e-14
6880.45 1.9607e-14
6896.31 1.9835e-14
6912.21 1.979e-14
6928.14 1.9565e-14
6944.11 2.0114e-14
6960.12 1.9747e-14
6976.16 2.0442e-14
6992.25 2.0396e-14
7008.37 1.9796e-14
7024.52 1.9346e-14
7040.71 2.0166e-14
7056.95 2.0875e-14
7073.21 1.8952e-14
7089.52 1.9484e-14
7105.86 1.8997e-14
7122.24 1.8911e-14
7138.66 1.7936e-14
7155.12 1.8103e-14
7171.61 1.7897e-14
7188.14 1.7939e-14
7204.71 1.8231e-14
7221.32 1.87e-14
7237.97 1.9048e-14
7254.65 1.927e-14
7271.38 1.8788e-14
7288.14 1.8789e-14
7304.94 1.9495e-14
7321.78 1.9451e-14
7338.66 1.9363e-14
7355.58 1.9724e-14
7372.53 1.9454e-14
7389.53 1.9635e-14
7406.56 1.9501e-14
7423.63 1.9102e-14
7440.75 1.9865e-14
7457.9 1.9821e-14
7475.09 1.9959e-14
7492.33 1.9777e-14
7509.6 1.9961e-14
7526.91 2.0147e-14
7544.26 2.0148e-14
7561.65 1.9872e-14
7579.08 1.9421e-14
7596.55 1.9155e-14
7614.07 1.8893e-14
7631.62 1.8982e-14
7649.21 1.9026e-14
7666.85 1.8171e-14
7684.52 1.8467e-14
7702.23 1.8131e-14
7719.99 1.7924e-14
7737.79 1.8258e-14
7755.62 1.7317e-14
7773.5 1.8134e-14
7791.42 1.8094e-14
7809.38 1.797e-14
7827.38 1.8474e-14
7845.43 1.8055e-14
7863.51 1.8223e-14
7881.64 1.8015e-14
7899.81 1.8267e-14
7918.02 1.7607e-14
7936.27 1.7608e-14
7954.57 1.7129e-14
7972.91 1.7691e-14
7991.29 1.8104e-14
8009.71 1.7693e-14
8028.17 1.8358e-14
8046.68 1.8657e-14
8065.23 1.8529e-14
8083.82 1.7942e-14
8102.46 1.7334e-14
8121.13 1.8194e-14
8139.86 1.7987e-14
8158.62 1.77e-14
8177.43 1.7579e-14
8196.28 1.6983e-14
8215.17 1.8073e-14
8234.11 1.7582e-14
8253.09 1.8075e-14
8272.12 1.8412e-14
8291.19 1.7544e-14
8310.3 1.7626e-14
8329.46 1.7107e-14
8348.66 1.7266e-14
8367.9 1.767e-14
8387.2 1.711e-14
8406.53 1.719e-14
8425.91 1.7591e-14
8445.33 1.6156e-14
8464.8 1.6918e-14
8484.31 1.7353e-14
8503.87 1.59e-14
8523.48 1.6159e-14
8543.12 1.6574e-14
8562.82 1.6922e-14
8582.56 1.7002e-14
8602.34 1.6615e-14
8622.17 1.6464e-14
8642.05 1.6887e-14
8661.97 1.6277e-14
8681.94 1.5908e-14
8701.95 1.6242e-14
8722.01 1.6431e-14
8742.12 1.6737e-14
8762.27 1.6059e-14
8782.47 1.6283e-14
8802.72 1.6587e-14
8823.01 1.7052e-14
8843.35 1.6819e-14
8863.73 1.6589e-14
8884.17 1.5662e-14
8904.65 1.6288e-14
8925.18 1.6402e-14
8945.75 1.6631e-14
8966.37 1.6216e-14
8987.04 1.5958e-14
9007.76 1.5704e-14
9028.52 1.5032e-14
9049.34 1.7024e-14
9070.2 1.6221e-14
9091.1 1.5385e-14
9112.06 1.6223e-14
9133.07 1.6755e-14
9154.12 1.5892e-14
9175.22 1.5966e-14
9196.38 1.5894e-14
9217.58 1.5605e-14
9238.82 1.4497e-14
9260.12 1.5679e-14
9281.47 1.6231e-14
9302.86 1.5359e-14
9324.31 1.6233e-14
9345.81 1.6196e-14
9367.35 1.5938e-14
9388.94 1.6161e-14
9410.59 1.5794e-14
9432.28 1.635e-14
9454.02 1.6127e-14
9475.82 1.6541e-14
9497.66 1.6581e-14
9519.55 1.6019e-14
9541.5 1.5369e-14
9563.5 1.6058e-14
9585.54 1.6395e-14
9607.64 1.6171e-14
9629.79 1.6284e-14
9651.99 1.6099e-14
9674.23 1.6062e-14
9696.54 1.625e-14
9718.89 1.5917e-14
9741.29 1.5628e-14
9763.75 1.5737e-14
9786.25 1.5594e-14
9808.82 1.5958e-14
9831.43 1.5776e-14
9854.1 1.585e-14
9876.81 1.5742e-14
9899.58 1.5743e-14
9922.4 1.5853e-14
9945.28 1.5927e-14
9968.2 1.5928e-14
9991.18 1.5893e-14
10014.21 1.5967e-14
10083.62 1.5715e-14
10130.17 1.6382e-14
10176.93 1.6309e-14
10223.9 1.6614e-14
10271.1 1.6809e-14
10294.77 1.6849e-14
10510.34 1.6095e-14
10705.74 1.5125e-14
10904.78 1.4815e-14
11107.51 1.3668e-14
11287.99 1.3826e-14
11497.85 1.405e-14
11711.61 1.3731e-14
11901.91 1.2667e-14
12095.3 1.2844e-14
12291.84 1.2755e-14
12491.57 1.2181e-14
12694.54 1.1931e-14
12900.81 1.1741e-14
13110.43 1.1553e-14
13292.81 1.1084e-14
13508.8 1.0708e-14
13696.73 1.0488e-14
13887.27 9.8785e-15
14112.92 9.1979e-15
14309.25 9.1136e-15
14508.3 9.2617e-15
14710.13 8.8245e-15
14914.77 9.0717e-15
15087.48 9.2617e-15
15297.37 9.5212e-15
15510.18 9.4122e-15
15689.78 9.1346e-15
15908.05 8.7034e-15
16092.24 8.6236e-15
16316.11 8.6236e-15
16505.05 8.584e-15
16696.17 8.7034e-15
16889.49 8.7436e-15
17085.06 8.7034e-15
17282.9 8.408e-15
17483.04 8.1038e-15
17685.48 7.6682e-15
17890.26 7.2392e-15
18097.42 6.756e-15
18306.98 6.5568e-15
18518.97 6.2906e-15
18690.32 5.9114e-15
18906.74 5.8035e-15
19081.69 5.7636e-15
19302.63 5.6453e-15
19481.25 5.4286e-15
19706.83 5.2082e-15
19889.17 5.0314e-15
20119.48 4.9738e-15
20305.65 4.8383e-15
20493.52 4.8383e-15
20683.15 4.7719e-15
20922.66 4.7173e-15
21116.24 4.6848e-15
21311.64 4.6099e-15
21508.81 4.5466e-15
21707.84 4.4126e-15
21908.71 4.352e-15
22111.42 4.2334e-15
22316.02 4.1275e-15
22522.49 4.137e-15
22678.63 4.1171e-15
22888.48 3.8069e-15
23100.25 3.8751e-15
23314.0 3.4894e-15
23475.6 3.3185e-15
23692.82 3.4514e-15
23912.03 3.2646e-15
24077.8 3.1665e-15
24300.57 3.1481e-15
24525.43 2.9332e-15
24695.45 2.8555e-15
24848.19 2.4315e-15
24942.27 2.3658e-15
25036.25 2.1934e-15
25130.33 2.3107e-15
25224.41 2.1685e-15
25318.39 2.2691e-15
25412.47 2.2936e-15
25506.55 2.3174e-15
25600.53 2.2853e-15
25694.61 2.3048e-15
25788.69 2.3042e-15
25882.67 2.3234e-15
25976.75 2.2788e-15
26070.73 2.3116e-15
26164.81 2.2498e-15
26258.89 2.2506e-15
26352.87 2.1461e-15
26446.95 2.105e-15
26541.03 2.1123e-15
26635.01 2.1843e-15
26729.09 2.0754e-15
26823.07 2.1749e-15
26917.15 2.1498e-15
27011.23 2.1826e-15
27105.21 2.1137e-15
27199.29 2.1867e-15
27293.27 2.2437e-15
27387.35 2.297e-15
27481.43 2.1407e-15
27575.41 2.196e-15
27669.49 2.1751e-15
27763.57 2.2351e-15
27857.55 2.2474e-15
27951.63 2.2315e-15
28045.61 2.1636e-15
28139.69 2.1812e-15
28233.77 2.0968e-15
28327.75 2.1056e-15
28421.83 2.0214e-15
28515.91 1.9668e-15
28609.89 2.0171e-15
28703.97 2.0428e-15
28797.95 1.9708e-15
28892.03 1.9998e-15
28986.11 2.001e-15
29080.09 2.0306e-15
29174.17 2.0205e-15
29268.25 1.9797e-15
29362.23 1.9701e-15
29456.3 2.0136e-15
29550.29 1.9405e-15
29644.37 1.9623e-15
29738.44 1.8573e-15
29832.43 1.9539e-15
29926.51 1.8817e-15
30020.58 2.0078e-15
30114.57 2.0579e-15
30208.64 2.1924e-15
30302.63 2.0567e-15
30396.7 2.0254e-15
30490.78 2.0153e-15
30584.77 2.02e-15
30678.85 1.9798e-15
30772.92 2.0287e-15
30866.91 1.9858e-15
30960.99 1.8896e-15
31054.97 1.8378e-15
31149.05 1.794e-15
31243.12 1.8384e-15
31337.11 1.7507e-15
31431.19 1.807e-15
31525.26 1.8968e-15
31619.25 1.8212e-15
31713.33 1.9851e-15
31807.31 2.0295e-15
31901.38 2.1019e-15
31995.46 2.1225e-15
32089.44 2.0961e-15
32183.52 2.1649e-15
32277.6 2.1755e-15
32371.59 2.0658e-15
32465.66 2.2239e-15
32559.65 2.1928e-15
32653.72 2.1543e-15
32747.8 2.2146e-15
32841.78 2.2192e-15
32935.86 2.1122e-15
33029.94 2.2132e-15
33123.92 2.0178e-15
33218.0 2.0933e-15
33311.98 2.0247e-15
33406.06 2.0124e-15
33500.14 2.0953e-15
33594.12 2.0535e-15
33688.2 1.9387e-15
33782.28 2.0184e-15
33876.26 2.0712e-15
33970.34 2.066e-15
34064.33 1.9823e-15
34158.4 2.0094e-15
34252.48 1.9004e-15
34346.46 1.9314e-15
34440.54 1.8462e-15
34534.62 1.956e-15
34628.6 1.8925e-15
34722.68 1.9126e-15
34816.66 1.9355e-15
34910.74 1.8709e-15
35004.82 1.7902e-15
35098.8 1.9621e-15
35192.88 1.8151e-15
35286.96 1.8615e-15
35380.94 1.8916e-15
35475.02 1.8477e-15
35569.0 1.8893e-15
35663.08 1.926e-15
35757.16 1.8933e-15
35851.14 1.9949e-15
35945.22 1.8689e-15
36133.28 1.8082e-15
36227.36 1.8434e-15
36321.34 1.7861e-15
36415.42 1.8315e-15
36509.5 1.8333e-15
36603.48 1.8632e-15
36697.56 1.8032e-15
36791.64 1.8195e-15
36885.62 1.7997e-15
36979.7 1.8528e-15
37073.68 1.7947e-15
37167.76 1.7675e-15
37261.84 1.8358e-15
37355.82 1.914e-15
37449.9 1.8079e-15
37543.98 1.7291e-15
37637.96 1.679e-15
37732.04 1.7958e-15
37826.02 1.8116e-15
37920.1 1.7299e-15
38014.18 1.6772e-15
38108.16 1.7217e-15
38202.24 1.7628e-15
38296.32 1.7055e-15
38390.3 1.7749e-15
38484.38 1.8093e-15
38578.36 1.7504e-15
38672.44 1.7376e-15
38766.52 1.7494e-15
38860.5 1.8119e-15
38954.58 1.6874e-15
39048.65 1.7415e-15
39142.64 1.6912e-15
39236.71 1.759e-15
39330.7 1.7752e-15
39424.78 1.7514e-15
39518.86 1.6899e-15
39612.84 1.7043e-15
39706.92 1.7399e-15
39801.0 1.7349e-15
39894.98 1.6567e-15
39989.06 1.7682e-15
40083.04 1.6848e-15
40177.12 1.742e-15
40271.2 1.7059e-15
40412.12 1.7202e-15
40600.66 1.7573e-15
40741.4 1.7023e-15
40835.38 1.5922e-15
40929.46 1.643e-15
41023.54 1.5947e-15
41117.52 1.6758e-15
41211.59 1.5985e-15
41305.68 1.7479e-15
41399.65 1.6199e-15
41493.74 1.6607e-15
41587.81 1.6441e-15
41681.8 1.7063e-15
41775.87 1.732e-15
41869.86 1.6686e-15
41963.93 1.6419e-15
42058.01 1.5761e-15
42151.99 1.6838e-15
42246.07 1.6438e-15
42340.06 1.6355e-15
42434.14 1.634e-15
42528.21 1.7376e-15
42622.2 1.6576e-15
42716.28 1.5944e-15
42810.35 1.5897e-15
42904.33 1.6284e-15
42998.42 1.633e-15
43092.39 1.5655e-15
43186.48 1.7223e-15
43280.55 1.5721e-15
43468.61 1.5591e-15
43562.69 1.6529e-15
43656.67 1.5936e-15
43750.75 1.6329e-15
43844.74 1.5643e-15
43938.81 1.5635e-15
44032.89 1.5656e-15
44126.87 1.4902e-15
44220.95 1.5524e-15
44315.03 1.7002e-15
44409.01 1.609e-15
44503.09 1.5806e-15
44597.17 1.6033e-15
44691.15 1.6233e-15
44785.23 1.5835e-15
44879.21 1.5252e-15
44973.29 1.5682e-15
45067.37 1.5643e-15
45161.35 1.5785e-15
45255.43 1.3958e-15
45349.42 1.5514e-15
45443.49 1.4514e-15
45537.57 1.4692e-15
45631.55 1.5033e-15
45725.63 1.4652e-15
45819.71 1.4543e-15
45913.7 1.4748e-15
46007.77 1.5465e-15
46101.75 1.5083e-15
46195.83 1.5071e-15
46289.91 1.4675e-15
46383.89 1.5426e-15
46477.97 1.6304e-15
46572.05 1.6132e-15
46666.03 1.621e-15
46760.11 1.551e-15
46854.09 1.5879e-15
46948.17 1.5166e-15
47042.25 1.4443e-15
47136.23 1.5174e-15
47230.31 1.4596e-15
47324.39 1.4979e-15
47418.37 1.5092e-15
47512.45 1.3644e-15
47606.43 1.4412e-15
47700.51 1.4081e-15
47794.59 1.4514e-15
47888.57 1.3644e-15
47982.65 1.4139e-15
48077.7 1.2899e-15
48558.48 1.3359e-15
49044.06 1.3824e-15
49534.5 1.4293e-15
50029.85 1.4767e-15
50530.15 1.5245e-15
51035.45 1.5729e-15
51545.8 1.6217e-15
51857.8 1.6515e-15
52158.93 1.9647e-15
52460.09 1.6412e-15
52761.22 1.5179e-15
53062.36 1.8456e-15
53363.51 1.409e-15
53664.66 1.9448e-15
53965.79 1.3276e-15
54266.94 1.5947e-15
54568.08 1.4861e-15
54869.23 1.6148e-15
55170.37 1.1978e-15
55471.52 1.3256e-15
55772.66 1.5619e-15
56073.8 1.6732e-15
56374.94 1.4658e-15
56676.09 1.4677e-15
56977.24 1.663e-15
57278.38 1.8024e-15
57579.52 1.6132e-15
57880.67 1.5096e-15
58181.81 1.828e-15
58482.95 1.7814e-15
58784.1 1.7403e-15
59085.24 1.5182e-15
59386.38 1.6698e-15
59687.53 1.7839e-15
59988.67 1.7675e-15
60289.81 1.6599e-15
60590.96 1.7548e-15
60892.1 1.8381e-15
61193.24 1.7652e-15
61494.38 2.2266e-15
61795.53 2.4916e-15
62096.68 2.5722e-15
62397.81 2.5405e-15
62698.95 2.1143e-15
63000.11 2.0309e-15
63301.24 1.8284e-15
63602.38 1.6928e-15
63903.54 1.6487e-15
64204.67 1.7657e-15
64505.81 1.4783e-15
64806.97 1.489e-15
65108.1 1.4018e-15
65409.24 1.3225e-15
65710.39 1.3475e-15
66011.53 1.3237e-15
66312.68 1.5707e-15
66613.82 1.6627e-15
66914.97 1.5158e-15
67216.11 1.3221e-15
67517.25 1.4957e-15
67818.4 1.5569e-15
68119.54 1.6375e-15
68420.68 1.3271e-15
68721.83 1.4986e-15
69022.97 1.6549e-15
69324.11 1.5023e-15
69625.26 1.8097e-15
69926.39 1.9087e-15
70227.55 1.4297e-15
70528.68 1.5536e-15
70829.83 1.4465e-15
71130.98 1.5105e-15
71432.12 1.3716e-15
71733.26 1.6521e-15
72034.41 1.5282e-15
72335.55 1.6257e-15
72636.69 1.5509e-15
72937.83 1.4132e-15
73219.27 1.5483e-15
73238.98 1.79e-15
73540.13 1.8914e-15
73822.74 1.7847e-15
73841.26 2.0013e-15
74426.23 1.9989e-15
75029.72 2.2806e-15
75633.21 2.4045e-15
76236.69 2.5836e-15
76840.19 2.5393e-15
77443.67 2.329e-15
78047.15 2.2523e-15
78650.65 2.2824e-15
79254.13 2.0333e-15
79857.61 1.8207e-15
80461.1 1.7168e-15
81064.58 1.7416e-15
81668.08 1.5526e-15
82271.56 1.4783e-15
82875.05 1.439e-15
83478.54 1.4531e-15
84082.03 1.5398e-15
84685.51 1.4945e-15
85289.0 1.5108e-15
85892.49 1.4868e-15
86495.97 1.4809e-15
87099.45 1.2769e-15
87702.94 1.2903e-15
88306.43 1.1039e-15
88909.92 1.1218e-15
89513.41 1.0925e-15
90116.9 1.0492e-15
90720.39 1.0113e-15
91323.87 9.8783e-16
91927.35 9.7257e-16
92530.83 9.2986e-16
93134.33 8.9056e-16
93737.81 9.6808e-16
94341.3 8.5676e-16
94944.79 9.0291e-16
95548.28 9.1845e-16
96151.77 9.9563e-16
96755.26 1.0567e-15
97358.7 1.136e-15
97962.24 1.0814e-15
98565.68 8.9237e-16
99169.23 9.0662e-16
99772.68 9.5362e-16
100376.21 9.3193e-16
100979.67 9.243e-16
101583.11 9.4302e-16
102186.65 1.0164e-15
102790.09 9.3947e-16
103393.65 9.9814e-16
103997.09 9.7559e-16
104600.53 1.0015e-15
105204.08 1.1549e-15
105807.53 1.0944e-15
106411.06 1.017e-15
107014.51 1.0258e-15
107618.05 1.0336e-15
108221.5 1.0138e-15
108824.95 1.0861e-15
109428.49 1.1402e-15
110031.94 1.1757e-15
110635.48 1.1312e-15
111238.92 1.2995e-15
111842.47 1.5646e-15
112445.91 1.7201e-15
113049.36 1.6484e-15
113652.91 1.46e-15
114256.35 1.3299e-15
114859.89 1.2254e-15
115463.33 1.2096e-15
116066.88 1.167e-15
116670.33 1.1528e-15
117273.77 1.1614e-15
117877.32 1.0954e-15
118480.77 1.1164e-15
119084.3 1.1448e-15
119687.75 1.1722e-15
120291.2 1.1799e-15
120894.74 1.1451e-15
121498.18 1.1237e-15
122101.73 1.1362e-15
122705.18 1.137e-15
123308.72 1.1839e-15
123912.17 1.1544e-15
124515.61 1.2131e-15
125119.16 1.2034e-15
125722.6 1.1849e-15
126326.14 1.2523e-15
126929.59 1.2521e-15
127533.03 1.2977e-15
128136.57 1.4966e-15
128740.03 1.3063e-15
129343.57 1.0664e-15
129947.01 1.045e-15
130550.55 1.088e-15
131154.0 1.048e-15
131757.45 1.0583e-15
132361.0 1.0616e-15
132964.43 1.0544e-15
133567.98 1.0593e-15
134171.43 1.0952e-15
134774.97 1.0821e-15
135378.41 1.1008e-15
135981.86 1.0704e-15
136585.4 1.0786e-15
137188.86 1.111e-15
137792.38 1.0828e-15
138395.84 1.0675e-15
138999.38 1.0555e-15
139602.83 1.016e-15
140206.27 9.5466e-16
140809.83 9.2042e-16
141329.1 1.0232e-15
142220.22 1.0826e-15
143111.44 1.2085e-15
144002.57 1.091e-15
144893.69 1.0312e-15
145784.82 1.012e-15
146676.04 9.9457e-16
147567.17 1.0272e-15
148458.29 1.0243e-15
149349.51 1.0898e-15
150240.64 9.5523e-16
151131.76 9.7043e-16
152022.89 9.8057e-16
152914.11 9.7641e-16
153805.24 9.8153e-16
154696.36 1.1084e-15
155587.58 1.2325e-15
156478.71 1.1156e-15
157369.83 1.0016e-15
158261.05 1.0021e-15
159152.18 1.0086e-15
160043.3 1.0038e-15
160934.43 1.0467e-15
161825.67 1.0245e-15
162716.77 1.0443e-15
163607.9 1.1104e-15
164499.03 1.0861e-15
165390.25 1.0937e-15
166281.38 1.0885e-15
167172.51 1.0851e-15
168063.74 1.078e-15
168954.85 1.0994e-15
169845.98 1.1621e-15
170737.21 1.1414e-15
171628.32 1.0978e-15
172519.45 1.095e-15
173410.57 1.0779e-15
174301.79 1.0738e-15
175192.92 1.0315e-15
176084.04 1.0388e-15
176975.26 9.9801e-16
177866.39 1.0094e-15
178757.51 1.0245e-15
179648.73 9.77e-16
180539.86 1.0197e-15
181430.99 9.9922e-16
182322.11 9.9507e-16
183213.33 9.9523e-16
184104.46 9.7909e-16
184995.58 9.6068e-16
185886.82 9.9395e-16
186777.95 1.0665e-15
187669.05 1.093e-15
188560.18 9.8229e-16
189451.42 9.3871e-16
190342.53 9.5297e-16
191233.66 9.7168e-16
192124.89 9.3222e-16
193016.0 8.8511e-16
193907.13 9.6109e-16
194798.26 8.8483e-16
195689.49 8.8743e-16
196580.6 9.2597e-16
197471.73 8.9787e-16
198362.96 9.5402e-16
199774.14 8.5155e-16
201479.79 9.4949e-16
203186.43 9.2138e-16
204894.05 8.4823e-16
206602.53 9.0684e-16
208311.88 9.2643e-16
210022.21 8.4929e-16
211733.43 8.8951e-16
213445.6 9.1312e-16
215158.75 8.6999e-16
216872.77 8.1757e-16
218587.77 8.5677e-16
220303.64 8.7993e-16
222020.47 8.5816e-16
223738.28 8.074e-16
225456.98 8.3807e-16
227176.64 8.616e-16
228897.28 8.6177e-16
230618.79 8.2323e-16
232341.37 8.1707e-16
234064.72 8.3267e-16
235789.13 8.2744e-16
237514.54 8.161e-16
239240.81 7.8967e-16
240968.04 8.0201e-16
242696.25 8.3726e-16
244425.34 8.3593e-16
246155.5 7.8335e-16
247886.54 7.6038e-16
249618.64 7.5462e-16
251351.59 7.6372e-16
253085.57 7.6118e-16
254820.48 7.534e-16
256556.36 7.5439e-16
258293.22 8.5611e-16
260031.08 8.4516e-16
261769.88 7.4082e-16
263509.65 7.3475e-16
265250.4 7.2378e-16
266992.11 7.1826e-16
268734.92 7.0689e-16
270478.58 7.1141e-16
272223.22 7.2296e-16
273968.91 7.204e-16
275715.61 7.0005e-16
277463.16 6.8775e-16
279211.77 6.7741e-16
280961.38 6.8709e-16
282712.06 6.8966e-16
284463.67 6.8165e-16
286216.2 6.6337e-16
287969.85 6.6821e-16
289724.42 6.6186e-16
291480.01 6.5263e-16
293236.61 6.2271e-16
294994.18 6.5501e-16
296752.82 6.3985e-16
298512.42 6.3621e-16
300273.0 6.3426e-16
302034.64 6.3498e-16
303797.37 6.1553e-16
305561.05 6.0258e-16
307325.72 6.1697e-16
309091.34 6.3742e-16
310858.15 6.205e-16
312625.83 6.0998e-16
314394.64 6.2894e-16
316164.36 5.9019e-16
317935.23 6.2148e-16
319707.1 6.0437e-16
321479.89 5.8984e-16
323253.8 5.8199e-16
325028.77 5.9808e-16
326804.78 6.5277e-16
328581.82 6.2691e-16
330359.86 6.6167e-16
332138.9 6.5595e-16
333919.04 6.339e-16
335700.33 6.7137e-16
337482.47 6.2897e-16
339265.79 6.3538e-16
