# col1 col2
# An Atlas of Galaxy Spectral Energy Distributions from the Ultraviolet to the Mid-Infrared
# Brown et al. (2014)
# http://dx.doi.org/10.5072/03/529D3551F0117
# 
# Column 1 : Restframe Wavelength (Angstrom)
# Column 2 : Flux per unit wavelength (ergs/s/cm^2/Angstrom)
# Column 3 : Observed wavelength (Angstrom)
# Column 4 : Source (0 = model, 1 = Optical Spectrum, 2 = Akari, 3 = Spitzer IRS)
# 
102.03 4.1687e-19
103.92 4.8978e-19
106.1 5.902e-19
108.07 7.2444e-19
110.08 1.0399e-18
113.95 1.4191e-18
117.95 1.8281e-18
120.98 5.9566e-18
124.94 7.3621e-18
126.97 7.9983e-18
127.85 8.4528e-18
131.13 9.4189e-18
132.04 1.0914e-17
133.88 1.1668e-17
137.0 1.4488e-17
139.87 1.5959e-17
143.13 3.6983e-17
147.13 7.8886e-17
150.91 8.6497e-17
155.14 9.5499e-17
159.12 1.0544e-16
162.07 1.1298e-16
165.85 1.2503e-16
170.1 1.3583e-16
172.87 1.4488e-16
176.9 1.5631e-16
180.18 1.652e-16
181.85 1.7179e-16
186.09 1.845e-16
190.86 2.0091e-16
193.96 2.1232e-16
198.02 2.2594e-16
202.17 2.4099e-16
204.98 2.5177e-16
210.24 2.6002e-16
216.13 2.9376e-16
220.15 3.1046e-16
223.21 3.1915e-16
226.84 3.3806e-16
229.99 5.1523e-16
234.27 8.7297e-16
239.73 1.1066e-15
245.88 1.0666e-15
252.18 1.1402e-15
256.87 9.5719e-16
259.85 1.1246e-15
264.07 1.1885e-15
268.98 1.1967e-15
273.98 1.1995e-15
279.07 1.2023e-15
284.26 1.2106e-15
290.21 1.1614e-15
296.29 1.183e-15
301.1 1.1588e-15
308.12 1.1803e-15
318.21 1.2078e-15
327.88 1.205e-15
337.84 1.1912e-15
348.11 1.1749e-15
357.04 1.1695e-15
366.2 1.1722e-15
374.73 1.1561e-15
385.23 1.1015e-15
395.11 1.1246e-15
405.24 1.1194e-15
413.73 1.099e-15
422.39 1.0715e-15
430.24 1.052e-15
441.28 1.0399e-15
450.52 1.0139e-15
459.96 9.8855e-16
469.59 9.6828e-16
480.52 9.5499e-16
489.46 9.2045e-16
499.71 9.1622e-16
505.49 8.9536e-16
512.53 9.3756e-16
519.66 9.1833e-16
530.54 8.892e-16
540.4 8.4528e-16
550.45 8.2794e-16
559.39 8.414e-16
569.79 8.414e-16
580.38 8.147e-16
589.81 8.091e-16
599.4 7.7268e-16
610.54 6.9502e-16
620.46 7.7446e-16
630.54 7.5336e-16
639.32 7.5162e-16
649.7 7.379e-16
658.74 7.1945e-16
664.84 7.2778e-16
675.64 7.1945e-16
685.04 6.8391e-16
694.57 7.0958e-16
704.23 6.6681e-16
715.67 6.9823e-16
725.63 6.9024e-16
735.73 6.8391e-16
744.24 6.8077e-16
754.6 6.7608e-16
765.1 6.3241e-16
775.74 6.7298e-16
784.72 6.6222e-16
795.64 6.6681e-16
804.85 6.6681e-16
814.17 6.6374e-16
825.5 6.7298e-16
835.06 5.9841e-16
844.73 6.6069e-16
854.51 6.5464e-16
864.4 6.6527e-16
874.41 6.7453e-16
884.54 6.8549e-16
894.78 6.9183e-16
905.14 6.8234e-16
915.62 8.7297e-16
924.09 3.7325e-15
934.79 7.656e-15
945.62 1.406e-14
954.37 1.9409e-14
965.42 2.2131e-14
974.35 4.2364e-15
985.63 1.9409e-14
994.75 1.9999e-14
1003.96 2.799e-14
1015.58 2.6485e-14
1024.98 1.1376e-14
1034.46 1.888e-14
1044.04 3.4754e-14
1056.13 3.4041e-14
1065.9 2.729e-14
1075.76 3.1989e-14
1085.71 2.5586e-14
1095.76 3.3113e-14
1105.9 3.1769e-14
1116.13 3.0549e-14
1123.87 2.7479e-14
1134.27 3.4119e-14
1144.76 3.0903e-14
1155.35 3.2584e-14
1166.05 3.3497e-14
1174.13 2.3605e-14
1184.99 3.2063e-14
1195.96 2.2439e-14
1204.25 1.6406e-14
1215.39 1.0351e-14
1223.81 2.1281e-14
1235.14 3.1769e-14
1243.7 3.4834e-14
1255.21 3.3343e-14
1263.91 2.8774e-14
1275.6 3.6475e-14
1284.44 3.8019e-14
1296.33 3.0549e-14
1305.32 2.9992e-14
1314.36 3.6813e-14
1326.53 3.5156e-14
1335.72 3.1333e-14
1344.98 3.6644e-14
1354.3 3.54e-14
1363.69 3.1769e-14
1376.31 3.3113e-14
1385.85 3.342e-14
1395.45 2.9107e-14
1405.13 3.013e-14
1414.87 3.0761e-14
1424.67 3.1333e-14
1434.55 3.1046e-14
1441.17 3.2584e-14
1447.82 3.3037e-14
1454.51 3.2063e-14
1464.59 2.9648e-14
1474.74 2.9444e-14
1484.96 2.9854e-14
1495.26 3.02e-14
1505.62 2.8576e-14
1512.57 2.5586e-14
1516.06 2.7227e-14
1526.57 2.6424e-14
1533.61 2.3121e-14
1544.24 2.5119e-14
1554.95 2.3714e-14
1565.73 2.4099e-14
1576.58 2.5527e-14
1583.86 2.6607e-14
1594.83 2.7102e-14
1605.89 2.6424e-14
1613.3 2.6363e-14
1624.48 2.4946e-14
1635.74 2.6363e-14
1643.3 2.6669e-14
1654.69 2.466e-14
1666.16 2.6792e-14
1673.85 2.3988e-14
1677.7 2.6853e-14
1685.45 2.7797e-14
1693.23 2.6122e-14
1704.97 2.5061e-14
1716.78 2.3878e-14
1724.71 2.3659e-14
1736.66 2.5119e-14
1744.68 2.4434e-14
1756.77 2.5882e-14
1764.88 2.3714e-14
1773.03 2.4322e-14
1785.32 2.466e-14
1793.56 2.6122e-14
1805.99 2.5823e-14
1814.33 2.3988e-14
1826.9 2.4322e-14
1835.34 2.3388e-14
1843.81 2.1478e-14
1856.59 2.1627e-14
1865.16 2.2233e-14
1873.77 2.3768e-14
1886.75 2.1979e-14
1895.46 2.1184e-14
1904.21 2.2284e-14
1913.0 2.1478e-14
1926.26 2.0989e-14
1935.15 2.133e-14
1944.09 2.2491e-14
1953.06 2.1086e-14
1966.6 2.2909e-14
1975.67 2.3335e-14
1984.79 2.2233e-14
1993.96 2.1627e-14
2003.16 2.2029e-14
2017.04 2.138e-14
2026.36 2.208e-14
2035.71 2.1184e-14
2045.1 2.1979e-14
2054.54 2.0893e-14
2064.03 2.0989e-14
2073.56 2.2387e-14
2078.33 2.2233e-14
2083.13 2.3227e-14
2092.74 2.1979e-14
2107.25 2.1979e-14
2116.97 2.2336e-14
2126.75 2.2336e-14
2136.56 2.0845e-14
2146.42 2.1727e-14
2156.33 2.2336e-14
2166.28 2.138e-14
2176.28 2.1232e-14
2186.33 2.1429e-14
2196.42 2.2233e-14
2206.56 2.1577e-14
2216.74 2.0137e-14
2226.98 1.9861e-14
2237.26 2.1677e-14
2247.58 2.0749e-14
2252.76 1.9364e-14
2263.16 1.9543e-14
2273.61 2.0137e-14
2284.1 2.1281e-14
2294.64 1.9771e-14
2305.24 2.0379e-14
2315.88 1.9203e-14
2326.57 1.5579e-14
2337.31 1.7366e-14
2342.69 1.6247e-14
2353.51 1.8491e-14
2364.37 1.626e-14
2375.28 1.7112e-14
2386.25 1.5292e-14
2397.26 1.643e-14
2402.79 1.5876e-14
2413.88 1.6402e-14
2425.02 1.8369e-14
2436.21 1.7834e-14
2447.46 1.9118e-14
2453.1 1.9122e-14
2464.42 1.8437e-14
2475.8 1.7534e-14
2487.23 1.6752e-14
2492.96 1.6224e-14
2504.47 1.8982e-14
2510.24 1.5503e-14
2516.03 1.5471e-14
2527.64 1.509e-14
2533.47 1.6062e-14
2545.16 1.6031e-14
2556.91 1.8757e-14
2562.81 1.7308e-14
2574.63 1.8899e-14
2586.52 1.8265e-14
2592.48 1.7649e-14
2604.45 1.6746e-14
2616.47 1.6221e-14
2622.5 1.7749e-14
2634.6 2.0719e-14
2646.77 2.4019e-14
2652.87 2.7394e-14
2665.11 2.192e-14
2677.41 2.3499e-14
2683.59 2.4782e-14
2695.97 2.1495e-14
2702.19 2.3519e-14
2714.66 2.04e-14
2727.19 1.9134e-14
2733.48 2.1082e-14
2746.1 1.6448e-14
2752.43 1.8039e-14
2765.13 2.0064e-14
2777.89 2.1067e-14
2784.3 1.7487e-14
2797.15 1.285e-14
2803.6 1.3932e-14
2816.54 2.0008e-14
2823.03 2.3567e-14
2836.06 2.2621e-14
2842.6 1.9981e-14
2855.72 1.6781e-14
2862.3 2.3063e-14
2875.51 2.5949e-14
2882.14 2.473e-14
2895.45 2.6942e-14
2908.81 3.2482e-14
2928.97 2.9713e-14
2949.28 2.8331e-14
2969.72 2.9281e-14
2990.31 2.9505e-14
3011.03 2.98e-14
3031.9 3.0728e-14
3052.92 3.154e-14
3067.01 3.2967e-14
3088.27 3.269e-14
3109.68 3.5378e-14
3131.23 3.3657e-14
3152.94 3.3682e-14
3167.49 3.5696e-14
3189.45 3.2134e-14
3211.56 3.4618e-14
3226.38 3.0798e-14
3248.74 3.8448e-14
3271.26 4.2975e-14
3286.36 4.231e-14
3309.14 4.0625e-14
3324.42 3.9177e-14
3332.08 4.0008e-14
3339.76 3.633e-14
3347.46 4.319e-14
3355.18 4.1447e-14
3362.91 3.1161e-14
3370.66 3.6537e-14
3378.43 4.0258e-14
3386.22 3.9716e-14
3394.03 4.0095e-14
3401.85 4.626e-14
3409.69 4.0117e-14
3417.56 3.7021e-14
3425.43 4.2419e-14
3433.33 4.7172e-14
3441.25 4.0254e-14
3449.18 3.8012e-14
3457.13 4.1596e-14
3465.1 3.7772e-14
3473.09 4.4186e-14
3481.09 3.9302e-14
3489.12 4.2809e-14
3497.16 3.9143e-14
3505.22 4.5791e-14
3513.3 4.1295e-14
3521.4 4.6668e-14
3529.52 3.5739e-14
3537.66 4.4799e-14
3545.81 4.5856e-14
3553.98 4.7262e-14
3562.18 4.3716e-14
3570.39 3.6878e-14
3578.62 3.9709e-14
3586.87 3.2585e-14
3595.14 4.1989e-14
3603.43 4.9008e-14
3611.73 3.7878e-14
3620.06 4.4928e-14
3628.4 5.0891e-14
3629.22 4.6407e-14
3631.96 4.793e-14
3634.7 3.9858e-14
3637.45 4.2636e-14
3640.19 4.7786e-14
3642.93 4.5156e-14
3645.67 4.3759e-14
3648.41 4.3186e-14
3651.16 4.6039e-14
3653.9 4.4633e-14
3656.64 4.5624e-14
3659.38 5.0168e-14
3662.12 4.2913e-14
3664.86 4.7189e-14
3667.61 4.9982e-14
3670.35 5.071e-14
3673.09 4.5162e-14
3675.83 4.6638e-14
3678.57 4.7176e-14
3681.32 4.6813e-14
3684.06 4.3775e-14
3686.8 4.1795e-14
3689.54 4.7045e-14
3692.28 4.7265e-14
3695.03 4.8068e-14
3697.77 5.1725e-14
3700.51 4.4984e-14
3703.25 3.9302e-14
3705.99 4.4084e-14
3708.73 4.2252e-14
3711.48 4.5765e-14
3714.22 4.827e-14
3716.96 5.1823e-14
3719.7 5.2866e-14
3722.44 6.6558e-14
3725.19 8.3536e-14
3727.93 9.4183e-14
3730.67 7.7548e-14
3733.41 5.7781e-14
3736.15 4.2332e-14
3738.9 4.2348e-14
3741.64 4.0015e-14
3744.38 4.0872e-14
3747.12 3.9203e-14
3749.86 3.5835e-14
3752.6 4.6101e-14
3755.35 4.5927e-14
3758.09 4.8557e-14
3760.83 4.9191e-14
3763.57 4.5262e-14
3766.31 4.5515e-14
3769.06 4.8664e-14
3771.8 5.1967e-14
3774.54 5.4872e-14
3777.28 5.8105e-14
3780.02 6.118e-14
3782.77 5.9404e-14
3785.51 5.585e-14
3788.25 5.3409e-14
3790.99 4.8419e-14
3793.73 4.6158e-14
3796.47 4.7455e-14
3799.22 4.8593e-14
3801.96 5.4012e-14
3804.7 5.4188e-14
3807.44 5.6509e-14
3810.18 5.3133e-14
3812.93 5.3453e-14
3815.67 5.2822e-14
3818.41 4.8611e-14
3821.15 4.9367e-14
3823.89 4.4634e-14
3826.64 4.0343e-14
3829.38 3.9953e-14
3832.12 3.5615e-14
3834.86 3.4777e-14
3837.6 3.9012e-14
3840.34 4.0139e-14
3843.09 4.571e-14
3845.83 4.979e-14
3848.57 5.3114e-14
3851.31 5.3187e-14
3854.05 5.181e-14
3856.8 5.1017e-14
3859.54 5.2084e-14
3862.28 5.1797e-14
3865.02 5.6889e-14
3867.76 5.63e-14
3870.51 5.3541e-14
3873.25 5.2394e-14
3875.99 5.242e-14
3878.73 5.1519e-14
3881.47 5.0663e-14
3884.21 4.9655e-14
3886.96 5.0345e-14
3889.7 5.1346e-14
3892.44 5.2646e-14
3895.18 5.4653e-14
3897.92 5.4482e-14
3900.67 5.4495e-14
3903.41 5.736e-14
3906.15 5.8174e-14
3908.89 5.8354e-14
3911.63 6.1412e-14
3914.38 6.3072e-14
3917.12 5.9342e-14
3919.86 5.4998e-14
3922.6 5.1024e-14
3925.34 4.9368e-14
3928.08 4.3746e-14
3930.83 3.8186e-14
3933.57 3.5616e-14
3936.31 4.0503e-14
3939.05 4.4616e-14
3941.79 4.972e-14
3944.54 5.326e-14
3947.28 5.6921e-14
3950.02 5.6391e-14
3952.76 5.618e-14
3955.5 5.3821e-14
3958.25 5.1759e-14
3960.99 4.5978e-14
3963.73 4.1853e-14
3966.47 3.7951e-14
3969.21 3.6634e-14
3971.96 4.2076e-14
3974.7 4.79e-14
3977.44 5.5158e-14
3980.18 6.2403e-14
3982.92 6.3281e-14
3985.66 6.5724e-14
3988.41 6.8175e-14
3991.15 7.1542e-14
3993.89 7.0113e-14
3996.63 7.1441e-14
3999.37 7.5484e-14
4002.12 7.3368e-14
4004.86 7.4569e-14
4007.6 7.506e-14
4010.34 7.5325e-14
4013.08 7.6555e-14
4015.83 7.766e-14
4018.57 7.7047e-14
4021.31 7.7797e-14
4024.05 7.8439e-14
4026.79 7.8613e-14
4029.53 7.7063e-14
4032.28 7.5263e-14
4035.02 7.457e-14
4037.76 7.6536e-14
4040.5 7.787e-14
4043.24 7.4239e-14
4045.99 7.6093e-14
4048.73 7.8714e-14
4051.47 7.7339e-14
4054.21 7.6982e-14
4056.95 7.5783e-14
4059.7 7.2891e-14
4062.44 7.5197e-14
4065.18 7.4435e-14
4067.92 7.525e-14
4070.66 7.5167e-14
4073.4 7.4699e-14
4076.15 7.7941e-14
4078.89 7.6521e-14
4081.63 7.6285e-14
4084.37 7.8633e-14
4087.11 7.9027e-14
4089.86 7.8162e-14
4092.6 7.6883e-14
4095.34 7.22e-14
4098.08 6.8604e-14
4100.82 6.8535e-14
4103.57 6.9033e-14
4106.31 7.061e-14
4109.05 7.2894e-14
4111.79 7.6962e-14
4114.53 8.1243e-14
4117.27 7.7165e-14
4120.02 7.6249e-14
4122.76 7.7643e-14
4125.5 7.5819e-14
4128.24 7.5665e-14
4130.98 7.7624e-14
4133.73 7.7826e-14
4136.47 7.8852e-14
4139.21 7.9098e-14
4141.95 7.6535e-14
4144.69 7.5777e-14
4147.44 7.593e-14
4150.18 7.5452e-14
4152.92 7.4071e-14
4155.66 7.9135e-14
4158.4 7.793e-14
4161.14 7.9324e-14
4163.89 7.6752e-14
4166.63 7.6368e-14
4169.37 7.759e-14
4172.11 7.4873e-14
4174.85 7.3024e-14
4177.6 7.4697e-14
4180.34 7.4892e-14
4183.08 7.6065e-14
4185.82 7.7227e-14
4188.56 7.7923e-14
4191.31 7.6113e-14
4194.05 7.9209e-14
4196.79 7.5396e-14
4199.53 7.3817e-14
4202.27 7.478e-14
4205.01 7.5844e-14
4207.76 7.8649e-14
4210.5 8.0313e-14
4213.24 7.8264e-14
4215.98 7.9195e-14
4218.72 7.9167e-14
4221.47 7.689e-14
4224.21 7.4789e-14
4226.95 7.195e-14
4229.69 7.3857e-14
4232.43 7.4234e-14
4235.18 7.6739e-14
4237.92 7.9192e-14
4240.66 8.1824e-14
4243.4 8.1216e-14
4246.14 7.7762e-14
4248.89 7.8863e-14
4251.63 7.914e-14
4254.37 7.4587e-14
4257.11 7.5879e-14
4259.85 7.6757e-14
4262.59 8.0046e-14
4265.34 7.9124e-14
4268.08 7.6065e-14
4270.82 7.4683e-14
4273.56 7.2861e-14
4276.3 7.6302e-14
4279.05 7.848e-14
4281.79 7.7908e-14
4284.53 7.5538e-14
4287.27 7.1792e-14
4290.01 7.1865e-14
4292.76 6.9817e-14
4295.5 7.0195e-14
4298.24 6.7447e-14
4300.98 6.3825e-14
4303.72 6.3353e-14
4306.46 6.3879e-14
4309.21 6.783e-14
4311.95 7.2021e-14
4314.69 7.5787e-14
4317.43 8.2771e-14
4320.17 8.2173e-14
4322.92 7.9552e-14
4325.66 7.7593e-14
4328.4 7.873e-14
4331.14 8.4415e-14
4333.88 8.2613e-14
4336.63 8.1579e-14
4339.37 7.8715e-14
4342.11 7.984e-14
4344.85 8.085e-14
4347.59 8.0241e-14
4350.33 8.1604e-14
4353.08 8.1709e-14
4355.82 8.321e-14
4358.56 8.5468e-14
4361.3 8.7442e-14
4364.04 8.7543e-14
4366.79 8.7068e-14
4369.53 8.553e-14
4372.27 8.3584e-14
4375.01 8.2463e-14
4377.75 8.2961e-14
4380.5 8.1021e-14
4383.24 7.8327e-14
4385.98 7.7003e-14
4388.72 7.8396e-14
4391.46 8.3594e-14
4394.2 8.5111e-14
4396.95 8.3829e-14
4399.69 8.3229e-14
4402.43 8.0608e-14
4405.17 8.114e-14
4407.91 8.1884e-14
4410.66 8.6608e-14
4413.4 8.6547e-14
4416.14 8.8818e-14
4418.88 8.9788e-14
4421.62 8.9355e-14
4424.37 8.8596e-14
4427.11 8.8756e-14
4429.85 8.9494e-14
4432.59 8.8883e-14
4435.33 8.9575e-14
4438.07 8.9526e-14
4440.82 8.9924e-14
4443.56 8.9412e-14
4446.3 9.1579e-14
4449.04 9.1705e-14
4451.78 9.1353e-14
4454.53 8.9178e-14
4457.27 8.5618e-14
4460.01 8.5722e-14
4462.75 8.7332e-14
4465.49 8.919e-14
4468.24 9.2403e-14
4470.98 9.5542e-14
4473.72 9.5384e-14
4476.46 9.5922e-14
4479.2 9.4745e-14
4481.94 9.4801e-14
4484.69 9.6419e-14
4487.43 9.648e-14
4490.17 9.5614e-14
4492.91 9.4752e-14
4495.65 9.5785e-14
4498.4 9.8604e-14
4501.14 1.0049e-13
4503.88 9.9673e-14
4506.62 9.9987e-14
4509.36 1.0041e-13
4512.11 9.958e-14
4514.85 9.9451e-14
4517.59 9.9935e-14
4520.33 9.9563e-14
4523.07 9.6114e-14
4525.81 9.3349e-14
4528.56 9.0855e-14
4531.3 8.8821e-14
4534.04 9.0512e-14
4536.78 9.3332e-14
4539.52 9.5165e-14
4542.27 9.7145e-14
4545.01 9.5767e-14
4547.75 9.5625e-14
4550.49 9.6179e-14
4553.23 9.5652e-14
4555.98 9.768e-14
4558.72 9.9366e-14
4561.46 9.9508e-14
4564.2 9.9187e-14
4566.94 1.0004e-13
4569.68 1.0123e-13
4572.43 9.9151e-14
4575.17 9.7159e-14
4577.91 9.7568e-14
4580.65 9.5961e-14
4583.39 9.682e-14
4586.14 9.6445e-14
4588.88 9.7882e-14
4591.62 9.9582e-14
4594.36 9.8696e-14
4597.1 9.6528e-14
4599.85 9.8231e-14
4602.59 9.9353e-14
4605.33 9.9663e-14
4608.07 1.0318e-13
4610.81 1.0445e-13
4613.55 1.0268e-13
4616.3 1.0361e-13
4619.04 1.055e-13
4621.78 1.0428e-13
4624.52 1.0374e-13
4627.26 1.043e-13
4630.01 1.0281e-13
4632.75 1.0125e-13
4635.49 1.0043e-13
4638.23 9.9123e-14
4640.97 9.6151e-14
4643.72 9.5465e-14
4646.46 9.5422e-14
4649.2 9.6456e-14
4651.94 9.8173e-14
4654.68 9.9785e-14
4657.42 1.0091e-13
4660.17 9.9916e-14
4662.91 9.7222e-14
4665.65 9.3399e-14
4668.39 9.376e-14
4671.13 9.5216e-14
4673.88 9.6033e-14
4676.62 9.7801e-14
4679.36 9.6681e-14
4682.1 9.7145e-14
4684.84 9.6831e-14
4687.59 9.8273e-14
4690.33 9.7819e-14
4693.07 9.8612e-14
4695.81 9.7985e-14
4698.55 9.5507e-14
4701.29 9.4646e-14
4704.04 9.3663e-14
4706.78 9.4702e-14
4709.52 9.4234e-14
4712.26 9.5804e-14
4715.0 9.7239e-14
4717.75 9.8057e-14
4720.49 9.9381e-14
4723.23 1.005e-13
4725.97 1.0074e-13
4728.71 9.9529e-14
4731.46 9.7909e-14
4734.2 9.7976e-14
4736.94 9.8448e-14
4739.68 9.9332e-14
4742.42 9.9802e-14
4745.17 1.0255e-13
4747.91 1.0246e-13
4750.65 1.0148e-13
4753.39 1.0321e-13
4756.13 9.9476e-14
4758.87 9.8687e-14
4761.62 9.7197e-14
4764.36 9.8894e-14
4767.1 9.9402e-14
4769.84 9.8935e-14
4772.58 9.8838e-14
4775.33 1.0418e-13
4778.07 1.0353e-13
4780.81 1.0257e-13
4783.55 1.0098e-13
4786.29 1.0092e-13
4789.04 1.0033e-13
4791.78 1.0463e-13
4794.52 1.051e-13
4797.26 1.0524e-13
4800.0 1.0464e-13
4802.74 1.0411e-13
4805.49 1.0346e-13
4808.23 1.0604e-13
4810.97 1.048e-13
4813.71 1.0383e-13
4816.45 1.0529e-13
4819.2 1.0657e-13
4821.94 1.0449e-13
4824.68 1.0549e-13
4827.42 1.0342e-13
4830.16 1.0285e-13
4832.91 1.0344e-13
4835.65 1.0357e-13
4838.39 1.0242e-13
4841.13 1.0024e-13
4843.87 9.9951e-14
4846.61 9.9117e-14
4849.36 1.0081e-13
4852.1 1.0004e-13
4854.84 1.0232e-13
4857.58 1.033e-13
4860.32 1.0666e-13
4863.07 1.0352e-13
4865.81 9.7949e-14
4868.55 9.2323e-14
4871.29 9.2808e-14
4874.03 9.4971e-14
4876.78 9.541e-14
4879.52 9.7329e-14
4882.26 9.8278e-14
4885.0 9.9665e-14
4887.74 9.5241e-14
4890.48 9.7191e-14
4893.23 9.9655e-14
4895.97 1.0119e-13
4898.71 1.0303e-13
4901.45 1.0358e-13
4904.19 1.0193e-13
4906.94 1.0192e-13
4909.68 1.021e-13
4912.42 1.0022e-13
4915.16 9.9047e-14
4917.9 9.7353e-14
4920.65 9.7081e-14
4923.39 9.5458e-14
4926.13 9.8764e-14
4928.87 1.0259e-13
4931.61 1.0386e-13
4934.35 1.0148e-13
4937.1 9.8535e-14
4939.84 9.8966e-14
4942.58 1.034e-13
4945.32 1.0398e-13
4948.06 1.0751e-13
4950.81 1.066e-13
4953.55 1.0615e-13
4956.29 1.0741e-13
4959.03 1.07e-13
4961.77 1.0578e-13
4964.52 1.0319e-13
4967.26 1.0074e-13
4970.0 1.0087e-13
4972.74 1.0268e-13
4975.48 1.0234e-13
4978.22 9.9853e-14
4980.97 9.8054e-14
4983.71 9.8384e-14
4986.45 9.6842e-14
4989.19 9.9072e-14
4991.93 1.0019e-13
4994.68 1.0158e-13
4997.42 1.0197e-13
5000.16 1.0257e-13
5002.9 1.0781e-13
5005.64 1.1163e-13
5008.39 1.1252e-13
5011.13 1.0482e-13
5013.87 9.6891e-14
5016.61 9.328e-14
5019.35 9.5762e-14
5022.09 9.3385e-14
5024.84 9.526e-14
5027.58 9.808e-14
5030.32 1.0042e-13
5033.06 1.0068e-13
5035.8 9.8571e-14
5038.55 9.5584e-14
5041.29 9.4695e-14
5044.03 9.464e-14
5046.77 9.687e-14
5049.51 9.8069e-14
5052.26 9.9279e-14
5055.0 1.0004e-13
5057.74 1.0143e-13
5060.48 1.0167e-13
5063.22 1.0022e-13
5065.96 9.8906e-14
5068.71 9.7573e-14
5071.45 9.8457e-14
5074.19 9.955e-14
5076.93 9.7695e-14
5079.67 9.662e-14
5082.42 9.6183e-14
5085.16 9.7288e-14
5087.9 9.9429e-14
5090.64 9.7857e-14
5093.38 9.7859e-14
5096.13 9.8378e-14
5098.87 9.7812e-14
5101.61 9.6202e-14
5104.35 9.6188e-14
5107.09 9.5321e-14
5109.83 9.7279e-14
5112.58 9.7261e-14
5115.32 9.917e-14
5118.06 9.8954e-14
5120.8 9.8456e-14
5123.54 9.5378e-14
5126.29 9.1517e-14
5129.03 9.3156e-14
5131.77 9.4348e-14
5134.51 9.6978e-14
5137.25 9.3972e-14
5140.0 9.2207e-14
5142.74 9.2875e-14
5145.48 9.4001e-14
5148.22 9.3628e-14
5150.96 9.3281e-14
5153.7 9.3969e-14
5156.45 9.7638e-14
5159.19 9.5546e-14
5161.93 9.1474e-14
5164.67 8.6337e-14
5167.41 8.0072e-14
5170.16 7.8583e-14
5172.9 7.8866e-14
5175.64 8.2293e-14
5178.38 8.6166e-14
5181.12 8.6758e-14
5183.87 8.3576e-14
5186.61 8.7175e-14
5189.35 8.9237e-14
5192.09 9.1512e-14
5194.83 9.4487e-14
5197.57 9.4898e-14
5200.32 9.5671e-14
5203.06 9.2801e-14
5205.8 9.1577e-14
5208.54 9.1146e-14
5211.28 9.3494e-14
5214.03 9.6768e-14
5216.77 9.9187e-14
5219.51 9.9539e-14
5222.25 9.5991e-14
5224.99 9.5036e-14
5227.74 9.5886e-14
5230.48 9.6932e-14
5233.22 9.7698e-14
5235.96 1.0075e-13
5238.7 1.023e-13
5241.45 1.0225e-13
5244.19 1.0127e-13
5246.93 9.9496e-14
5249.67 9.9871e-14
5252.41 9.8536e-14
5255.15 1.0039e-13
5257.9 1e-13
5260.64 9.7708e-14
5263.38 9.3028e-14
5266.12 8.9505e-14
5268.86 8.9504e-14
5271.61 9.0919e-14
5274.35 9.6476e-14
5277.09 9.8528e-14
5279.83 1.0372e-13
5282.57 1.0498e-13
5285.32 1.0605e-13
5288.06 1.0707e-13
5290.8 1.0863e-13
5293.54 1.0753e-13
5296.28 1.0351e-13
5299.02 1.0209e-13
5301.77 1.0462e-13
5304.51 1.0699e-13
5307.25 1.0765e-13
5309.99 1.1069e-13
5312.73 1.0904e-13
5315.48 1.0835e-13
5318.22 1.1047e-13
5320.96 1.0594e-13
5323.7 1.0399e-13
5326.44 9.9785e-14
5329.19 1.0126e-13
5331.93 1.0309e-13
5334.67 1.0367e-13
5337.41 1.0674e-13
5340.15 1.0558e-13
5342.89 1.0701e-13
5345.64 1.041e-13
5348.38 1.0608e-13
5351.12 1.0698e-13
5353.86 1.1139e-13
5356.6 1.1254e-13
5359.35 1.12e-13
5362.09 1.1028e-13
5364.83 1.0782e-13
5367.57 1.0404e-13
5370.31 1.0355e-13
5373.06 1.0367e-13
5375.8 1.0678e-13
5378.54 1.0773e-13
5381.28 1.0793e-13
5384.02 1.0904e-13
5386.76 1.0705e-13
5389.51 1.0545e-13
5392.25 1.038e-13
5394.99 1.033e-13
5397.73 1.0178e-13
5400.47 1.0086e-13
5403.22 1.0014e-13
5405.96 1.0143e-13
5408.7 1.0016e-13
5411.44 1.0186e-13
5414.18 1.048e-13
5416.93 1.0522e-13
5419.67 1.0559e-13
5422.41 1.0558e-13
5425.15 1.0351e-13
5427.89 1.0452e-13
5430.63 1.0412e-13
5433.38 1.0252e-13
5436.12 1.0301e-13
5438.86 1.0458e-13
5441.6 1.0749e-13
5444.34 1.0746e-13
5447.09 1.0342e-13
5449.83 1.0066e-13
5452.57 1.042e-13
5455.31 1.0025e-13
5458.05 1.0123e-13
5460.8 1.038e-13
5463.54 1.0493e-13
5466.28 1.0447e-13
5469.02 1.0306e-13
5471.76 1.0372e-13
5474.5 1.025e-13
5477.25 1.0158e-13
5479.99 1.0341e-13
5482.73 1.0696e-13
5485.47 1.0617e-13
5488.21 1.082e-13
5490.96 1.0758e-13
5493.7 1.0688e-13
5496.44 1.0641e-13
5499.18 1.079e-13
5501.92 1.0753e-13
5504.67 1.0543e-13
5507.41 1.0355e-13
5510.15 1.0159e-13
5512.89 1.0408e-13
5515.63 1.0431e-13
5518.37 1.0364e-13
5521.12 1.1043e-13
5523.86 1.0547e-13
5526.6 1.0585e-13
5529.34 1.04e-13
5532.08 1.0625e-13
5534.83 1.0507e-13
5537.57 1.0579e-13
5540.31 1.0579e-13
5543.05 1.0506e-13
5545.79 1.0679e-13
5548.54 1.066e-13
5551.28 1.0732e-13
5554.02 1.0797e-13
5556.76 1.0384e-13
5559.5 1.0377e-13
5562.24 1.0378e-13
5564.99 1.0367e-13
5567.73 1.0311e-13
5570.47 1.0387e-13
5573.21 1.0416e-13
5575.95 1.0527e-13
5578.7 1.0478e-13
5581.44 1.0364e-13
5584.18 1.0337e-13
5586.92 1.0133e-13
5589.66 9.8204e-14
5592.41 1.0172e-13
5595.15 1.016e-13
5597.89 1.0349e-13
5600.63 1.0222e-13
5603.37 1.0414e-13
5606.11 1.0502e-13
5608.86 1.0832e-13
5611.6 1.0654e-13
5614.34 1.0513e-13
5617.08 1.0181e-13
5619.82 1.0655e-13
5622.57 1.0191e-13
5625.31 1.0597e-13
5628.05 1.0586e-13
5630.79 1.0597e-13
5633.53 1.0501e-13
5636.28 1.0513e-13
5639.02 1.03e-13
5641.76 1.0451e-13
5644.5 1.0649e-13
5647.24 1.0652e-13
5649.98 1.0648e-13
5652.73 1.0833e-13
5655.47 1.0737e-13
5658.21 1.0612e-13
5660.95 1.0539e-13
5663.69 1.0448e-13
5666.44 1.0626e-13
5669.18 1.0631e-13
5671.92 1.0785e-13
5674.66 1.0845e-13
5677.4 1.0685e-13
5680.15 1.0674e-13
5682.89 1.0725e-13
5685.63 1.0519e-13
5688.37 1.0814e-13
5691.11 1.0842e-13
5693.86 1.0677e-13
5696.6 1.0529e-13
5699.34 1.0706e-13
5702.08 1.0519e-13
5704.82 1.0257e-13
5707.56 1.0163e-13
5710.31 1.039e-13
5713.05 1.0494e-13
5715.79 1.0667e-13
5718.53 1.0839e-13
5721.27 1.093e-13
5724.02 1.0879e-13
5726.76 1.0937e-13
5729.5 1.0819e-13
5732.24 1.0948e-13
5734.98 1.1082e-13
5737.73 1.0892e-13
5740.47 1.0819e-13
5743.21 1.0967e-13
5745.95 1.1071e-13
5748.69 1.1105e-13
5751.43 1.1037e-13
5754.18 1.0799e-13
5756.92 1.0687e-13
5759.66 1.0847e-13
5762.4 1.0731e-13
5765.14 1.0821e-13
5767.89 1.0828e-13
5770.63 1.0857e-13
5773.37 1.059e-13
5776.11 1.067e-13
5778.85 1.0612e-13
5781.6 1.0311e-13
5784.34 1.0221e-13
5787.08 1.0537e-13
5789.82 1.0861e-13
5792.56 1.0709e-13
5795.3 1.0819e-13
5798.05 1.079e-13
5800.79 1.0794e-13
5803.53 1.0741e-13
5806.27 1.0924e-13
5809.01 1.0994e-13
5811.76 1.1042e-13
5814.5 1.098e-13
5817.24 1.0792e-13
5819.98 1.0719e-13
5822.72 1.0881e-13
5825.47 1.109e-13
5828.21 1.1107e-13
5830.95 1.1023e-13
5833.69 1.0905e-13
5836.43 1.09e-13
5839.17 1.0917e-13
5841.92 1.0931e-13
5844.66 1.0874e-13
5847.4 1.0731e-13
5850.14 1.0577e-13
5852.88 1.0721e-13
5855.63 1.0202e-13
5858.37 1.0354e-13
5861.11 1.0393e-13
5863.85 1.0511e-13
5866.59 1.0819e-13
5869.34 1.1116e-13
5872.08 1.1028e-13
5874.82 1.1014e-13
5877.56 1.0737e-13
5880.3 1.024e-13
5883.04 1.0038e-13
5885.79 9.6193e-14
5888.53 9.2491e-14
5891.27 9.0202e-14
5894.01 8.9607e-14
5896.75 9.2352e-14
5899.5 9.536e-14
5902.24 9.977e-14
5904.98 1.0374e-13
5907.72 1.0526e-13
5910.46 1.0399e-13
5913.21 1.0253e-13
5915.95 1.053e-13
5918.69 1.0513e-13
5921.43 1.0517e-13
5924.17 1.0453e-13
5926.91 1.0475e-13
5929.66 1.0554e-13
5932.4 1.0539e-13
5935.14 1.039e-13
5937.88 1.0492e-13
5940.62 1.0382e-13
5943.37 1.0524e-13
5946.11 1.0478e-13
5948.85 1.0578e-13
5951.59 1.0432e-13
5954.33 1.0563e-13
5957.08 1.0508e-13
5959.82 1.0543e-13
5962.56 1.0588e-13
5965.3 1.0583e-13
5968.04 1.0352e-13
5970.78 1.0625e-13
5973.53 1.0553e-13
5976.27 1.0461e-13
5979.01 1.0278e-13
5981.75 1.0151e-13
5984.49 1.0373e-13
5987.24 1.0551e-13
5989.98 1.0428e-13
5992.72 1.0708e-13
5995.46 1.0545e-13
5998.2 1.0437e-13
6000.95 1.0305e-13
6003.69 1.0277e-13
6006.43 1.0368e-13
6009.17 1.0462e-13
6011.91 1.0233e-13
6014.65 1.0345e-13
6017.4 1.0241e-13
6020.14 1.0251e-13
6022.88 1.0315e-13
6025.62 1.079e-13
6028.36 1.0714e-13
6031.11 1.0514e-13
6033.85 1.068e-13
6036.59 1.0812e-13
6039.33 1.0544e-13
6042.07 1.0506e-13
6044.82 1.0574e-13
6047.56 1.0807e-13
6050.3 1.0549e-13
6053.04 1.0522e-13
6055.78 1.0524e-13
6058.52 1.0381e-13
6061.27 1.0396e-13
6064.01 1.0546e-13
6066.75 1.0636e-13
6069.49 1.0832e-13
6072.23 1.083e-13
6074.98 1.0732e-13
6077.72 1.0503e-13
6080.46 1.042e-13
6083.2 1.0187e-13
6085.94 1.034e-13
6088.69 1.0396e-13
6091.43 1.023e-13
6094.17 1.0438e-13
6096.91 1.0369e-13
6099.65 1.0425e-13
6102.39 1.0222e-13
6105.14 1.0426e-13
6107.88 1.0519e-13
6110.62 1.0663e-13
6113.36 1.0398e-13
6116.1 1.0394e-13
6118.85 1.0048e-13
6121.59 1.012e-13
6124.33 1.0159e-13
6127.07 1.0375e-13
6129.81 1.0107e-13
6132.56 1.0118e-13
6135.3 1.0109e-13
6138.04 1.007e-13
6140.78 1.0212e-13
6143.52 1.0375e-13
6146.26 1.0403e-13
6149.01 1.0393e-13
6151.75 1.0313e-13
6154.49 1.017e-13
6157.23 1.0104e-13
6159.97 9.819e-14
6162.72 9.5146e-14
6165.46 9.4451e-14
6168.2 9.4887e-14
6170.94 9.6408e-14
6173.68 9.8794e-14
6176.43 1.0178e-13
6179.17 1.0097e-13
6181.91 1.0072e-13
6184.65 9.8469e-14
6187.39 9.781e-14
6190.14 9.7988e-14
6192.88 9.9426e-14
6195.62 9.9816e-14
6198.36 1.0009e-13
6201.1 1.0275e-13
6203.84 1.0078e-13
6206.59 9.9391e-14
6209.33 1.005e-13
6212.07 9.9501e-14
6214.81 9.7266e-14
6217.55 9.5332e-14
6220.3 9.3179e-14
6223.04 9.6019e-14
6225.78 9.7408e-14
6228.52 9.6329e-14
6231.26 9.6042e-14
6234.01 9.8876e-14
6236.75 9.838e-14
6239.49 9.6458e-14
6242.23 9.5933e-14
6244.97 9.448e-14
6247.71 9.5573e-14
6250.46 9.656e-14
6253.2 9.4689e-14
6255.94 9.5696e-14
6258.68 9.5332e-14
6261.42 9.8089e-14
6264.17 9.7486e-14
6266.91 9.9166e-14
6269.65 1.0001e-13
6272.39 9.968e-14
6275.13 9.8517e-14
6277.88 9.7819e-14
6280.62 9.7976e-14
6283.36 9.8202e-14
6286.1 8.3513e-14
6288.84 9.5038e-14
6291.58 9.6859e-14
6294.33 1.0158e-13
6297.07 1.0184e-13
6299.81 1.0307e-13
6302.55 1.0354e-13
6305.29 1.0183e-13
6308.04 1.0135e-13
6310.78 1.0093e-13
6313.52 9.9027e-14
6316.26 9.9118e-14
6319.0 9.7466e-14
6321.75 1.0009e-13
6324.49 1.0177e-13
6327.23 1.045e-13
6329.97 1.0185e-13
6332.71 1.023e-13
6335.45 1.0004e-13
6338.2 1.0086e-13
6340.94 1.0331e-13
6343.68 1.0322e-13
6346.42 1.0291e-13
6349.16 1.0316e-13
6351.91 1.0313e-13
6354.65 9.8943e-14
6357.39 9.9195e-14
6360.13 1.0013e-13
6362.87 9.757e-14
6365.62 1.0181e-13
6368.36 1.0037e-13
6371.1 1.0293e-13
6373.84 1.0285e-13
6376.58 1.0179e-13
6379.32 1.0203e-13
6382.07 1.027e-13
6384.81 1.0265e-13
6387.55 1.0209e-13
6390.29 1.0253e-13
6393.03 1.0248e-13
6395.78 1.0163e-13
6398.52 1.0283e-13
6401.26 1.031e-13
6404.0 1.0016e-13
6406.74 9.9141e-14
6409.49 9.9692e-14
6412.23 9.9608e-14
6414.97 1.0045e-13
6417.71 1.0079e-13
6420.45 9.9929e-14
6423.19 1.0086e-13
6425.94 1.0227e-13
6428.68 1.0229e-13
6431.42 9.991e-14
6434.16 1.0099e-13
6436.9 1.0182e-13
6439.65 1.022e-13
6442.39 1.0168e-13
6445.13 1.0126e-13
6447.87 1.0145e-13
6450.61 1.0137e-13
6453.36 1.0298e-13
6456.1 1.0284e-13
6458.84 1.006e-13
6461.58 1.0144e-13
6464.32 1.0065e-13
6467.06 1.037e-13
6469.81 1.0337e-13
6472.55 1.0322e-13
6475.29 1.0523e-13
6478.03 1.0536e-13
6480.77 1.0277e-13
6483.52 1.0321e-13
6486.26 1.0355e-13
6489.0 1.008e-13
6491.74 9.712e-14
6494.48 9.6668e-14
6497.23 9.4149e-14
6499.97 9.9399e-14
6502.71 1.0009e-13
6505.45 1.0495e-13
6508.19 1.0186e-13
6510.93 1.0435e-13
6513.68 1.0269e-13
6516.42 1.0124e-13
6519.16 1.0167e-13
6521.9 1.0329e-13
6524.64 1.0246e-13
6527.39 1.024e-13
6530.13 1.0348e-13
6532.87 1.0246e-13
6535.61 1.02e-13
6538.35 1.0281e-13
6541.1 1.0436e-13
6543.84 1.0983e-13
6546.58 1.1348e-13
6549.32 1.126e-13
6552.06 1.1063e-13
6554.8 1.1392e-13
6557.55 1.3003e-13
6560.29 1.4855e-13
6563.03 1.5355e-13
6565.77 1.3877e-13
6568.51 1.1803e-13
6571.26 1.0699e-13
6574.0 1.0682e-13
6576.74 1.1219e-13
6579.48 1.2514e-13
6582.22 1.3679e-13
6584.97 1.3336e-13
6587.71 1.2329e-13
6590.45 1.0888e-13
6593.19 1.0357e-13
6595.93 1.0099e-13
6598.67 1.0041e-13
6601.42 9.9899e-14
6604.16 1.0067e-13
6606.9 9.9857e-14
6609.64 1.0021e-13
6612.38 1.0064e-13
6615.13 1.009e-13
6617.87 1.0193e-13
6620.61 1.0137e-13
6623.35 1.0161e-13
6626.09 1.0031e-13
6628.84 1.0083e-13
6631.58 1.0057e-13
6634.32 9.9758e-14
6637.06 9.9781e-14
6639.8 9.9198e-14
6642.54 1.0028e-13
6645.29 9.9998e-14
6648.03 1.0169e-13
6650.77 1.0257e-13
6653.51 9.9714e-14
6656.25 9.7849e-14
6659.0 9.78e-14
6661.74 9.8821e-14
6664.48 9.9286e-14
6667.22 9.9844e-14
6669.96 9.8419e-14
6672.71 9.8737e-14
6675.45 9.7747e-14
6678.19 9.8366e-14
6680.93 9.7491e-14
6683.67 9.7796e-14
6686.42 9.763e-14
6689.16 9.7394e-14
6691.9 9.7752e-14
6694.64 9.6965e-14
6697.38 9.7863e-14
6700.12 9.7968e-14
6702.87 9.8358e-14
6705.61 9.9069e-14
6708.35 1.0169e-13
6711.09 1.0603e-13
6713.83 1.121e-13
6716.58 1.1447e-13
6719.32 1.1306e-13
6722.06 1.0592e-13
6724.8 1.0528e-13
6727.54 1.0906e-13
6730.29 1.1223e-13
6733.03 1.0832e-13
6735.77 1.0468e-13
6738.51 1e-13
6741.25 9.6053e-14
6743.99 9.3218e-14
6746.74 9.6281e-14
6749.48 9.4827e-14
6752.22 9.4981e-14
6754.96 9.4928e-14
6757.7 9.6144e-14
6760.45 9.5964e-14
6763.19 9.5914e-14
6765.93 9.3372e-14
6768.67 9.2344e-14
6771.41 9.4393e-14
6774.16 9.5845e-14
6776.9 9.6541e-14
6779.64 9.5691e-14
6782.38 9.685e-14
6785.12 9.5839e-14
6787.86 9.3346e-14
6790.61 9.1352e-14
6793.35 9.2327e-14
6796.09 9.5669e-14
6798.83 9.3901e-14
6801.57 9.5478e-14
6804.32 9.5813e-14
6807.06 1.0024e-13
6809.8 9.2431e-14
6818.92 9.7454e-14
6834.64 9.6796e-14
6850.39 9.5262e-14
6866.19 9.3106e-14
6882.01 9.5507e-14
6897.88 9.6182e-14
6913.78 9.6417e-14
6929.72 9.5547e-14
6945.69 9.8463e-14
6961.71 9.668e-14
6977.75 9.9402e-14
6993.84 9.9645e-14
7009.96 9.7615e-14
7026.12 9.9443e-14
7042.32 9.9457e-14
7058.55 9.9014e-14
7074.82 9.1782e-14
7091.13 9.2858e-14
7107.48 9.373e-14
7123.86 9.3528e-14
7140.29 9.0992e-14
7156.74 8.955e-14
7173.24 8.7928e-14
7189.78 8.9164e-14
7206.35 8.9588e-14
7222.96 9.275e-14
7239.62 9.3621e-14
7256.3 9.6702e-14
7273.03 9.5389e-14
7289.8 9.259e-14
7306.6 9.5637e-14
7323.45 9.6092e-14
7340.33 9.7443e-14
7357.25 9.8359e-14
7374.21 9.8827e-14
7391.21 9.8614e-14
7408.25 9.8176e-14
7425.33 9.7514e-14
7442.44 1.0189e-13
7459.6 1.0238e-13
7476.8 1.0075e-13
7494.03 1.0241e-13
7511.31 1.0195e-13
7528.62 1.0267e-13
7545.98 1.0316e-13
7563.38 1.0153e-13
7580.81 1.0038e-13
7598.28 9.8336e-14
7615.8 9.7899e-14
7633.36 9.882e-14
7650.95 9.6141e-14
7668.59 9.44e-14
7686.27 9.5728e-14
7703.99 9.5084e-14
7721.74 9.2081e-14
7739.55 9.4024e-14
7757.39 8.8778e-14
7775.27 9.4053e-14
7793.19 9.3205e-14
7811.16 9.4734e-14
7829.17 9.5845e-14
7847.21 9.542e-14
7865.31 9.6096e-14
7883.44 9.414e-14
7901.61 9.2436e-14
7919.83 9.0972e-14
7938.08 9.1617e-14
7956.38 9.121e-14
7974.72 9.3565e-14
7993.11 9.4663e-14
8011.53 9.3379e-14
8030.0 9.5569e-14
8048.51 9.7137e-14
8067.06 9.7601e-14
8085.66 9.5395e-14
8104.3 9.2383e-14
8122.98 9.455e-14
8141.71 9.3698e-14
8160.48 9.4146e-14
8179.29 9.3083e-14
8198.14 9.3313e-14
8217.04 9.5063e-14
8235.99 8.572e-14
8254.97 9.7983e-14
8274.0 9.7774e-14
8293.08 9.4688e-14
8312.19 9.1277e-14
8331.35 9.0873e-14
8350.56 9.3649e-14
8369.81 9.3881e-14
8389.1 9.3035e-14
8408.44 9.3051e-14
8427.83 9.2852e-14
8447.25 8.7875e-14
8466.72 8.9317e-14
8486.25 9.1413e-14
8505.81 6.8561e-14
8525.41 8.5932e-14
8545.07 8.2837e-14
8564.77 8.8165e-14
8584.51 8.9613e-14
8604.3 8.8806e-14
8624.13 8.9437e-14
8644.01 9.0488e-14
8663.94 8.7029e-14
8683.91 8.2935e-14
8703.93 8.7864e-14
8724.0 8.9719e-14
8744.11 8.7289e-14
8764.27 8.9543e-14
8784.47 9.018e-14
8804.72 8.9988e-14
8825.02 9.1888e-14
8845.36 8.8988e-14
8865.75 9.0867e-14
8886.19 8.4233e-14
8906.67 8.6409e-14
8927.2 8.7224e-14
8947.79 8.7642e-14
8968.41 8.7053e-14
8989.08 8.4307e-14
9009.81 7.9057e-14
9030.58 8.2227e-14
9051.39 9.122e-14
9072.26 8.554e-14
9093.18 8.7952e-14
9114.14 8.6961e-14
9135.14 9.024e-14
9156.21 8.5011e-14
9177.31 8.3283e-14
9198.47 8.6823e-14
9219.67 8.1042e-14
9240.93 8.0129e-14
9262.23 8.5088e-14
9283.58 8.7689e-14
9304.98 7.7808e-14
9326.43 8.7721e-14
9347.93 8.7334e-14
9369.48 8.6151e-14
9391.08 8.7164e-14
9412.73 8.5786e-14
9434.43 8.7599e-14
9456.18 8.6413e-14
9477.97 8.8036e-14
9499.83 8.8052e-14
9521.72 8.686e-14
9543.67 8.5094e-14
9565.68 8.6294e-14
9587.73 8.751e-14
9609.82 8.6525e-14
9631.98 8.6941e-14
9654.18 8.5566e-14
9676.44 8.5583e-14
9698.74 8.6391e-14
9721.1 8.5221e-14
9743.51 8.4262e-14
9765.97 8.4472e-14
9788.49 8.3329e-14
9811.05 8.509e-14
9833.67 8.452e-14
9856.33 8.4731e-14
9879.06 8.4164e-14
9901.83 8.3216e-14
9924.65 8.3809e-14
9947.54 8.3825e-14
9970.47 8.3842e-14
9993.45 8.3473e-14
10016.49 8.3297e-14
10085.92 8.2202e-14
10132.47 8.2995e-14
10179.24 8.2077e-14
10226.23 8.2299e-14
10273.43 8.2331e-14
10297.11 8.1781e-14
10488.55 7.9313e-14
10708.18 7.6208e-14
10907.26 7.3621e-14
11110.04 7.0632e-14
11290.56 6.8865e-14
11500.46 6.8077e-14
11687.33 6.6069e-14
11904.62 6.368e-14
12098.06 6.223e-14
12294.63 6.1094e-14
12494.4 5.9429e-14
12697.42 5.7943e-14
12903.74 5.6494e-14
13113.41 5.5335e-14
13295.83 5.3827e-14
13511.87 5.2845e-14
13699.84 5.1761e-14
13890.43 5.0003e-14
14116.13 4.8084e-14
14312.5 4.7315e-14
14511.61 4.7424e-14
14713.49 4.5814e-14
14883.85 4.6132e-14
15090.91 4.6238e-14
15300.84 4.6773e-14
15513.7 4.6238e-14
15693.35 4.5604e-14
15911.66 4.4157e-14
16095.92 4.4157e-14
16282.28 4.3853e-14
16508.8 4.3053e-14
16699.96 4.2462e-14
16893.34 4.1591e-14
17088.96 4.0458e-14
17286.83 3.8905e-14
17487.01 3.767e-14
17689.5 3.6224e-14
17894.34 3.4914e-14
18101.53 3.3343e-14
18311.14 3.2434e-14
18480.58 3.1405e-14
18694.56 3.0061e-14
18911.04 2.9174e-14
19086.03 2.8576e-14
19307.04 2.7606e-14
19485.67 2.6485e-14
19711.31 2.5645e-14
19893.71 2.4831e-14
20077.77 2.4378e-14
20310.26 2.3496e-14
20498.2 2.3121e-14
20687.85 2.2491e-14
20879.28 2.1878e-14
21121.06 2.1429e-14
21316.48 2.0941e-14
21513.73 2.0464e-14
21712.77 1.977e-14
21913.69 1.9364e-14
22116.47 1.8793e-14
22321.09 1.8281e-14
22475.83 1.7824e-14
22683.78 1.7338e-14
22893.68 1.556e-14
23105.5 1.5382e-14
23319.3 1.349e-14
23480.95 1.2735e-14
23698.2 1.2912e-14
23917.49 1.1858e-14
24083.27 1.1482e-14
24306.12 1.135e-14
24474.59 1.0617e-14
24701.06 1.0471e-14
24872.27 8.892e-15
25102.42 8.7498e-15
25276.41 8.8105e-15
25510.3 8.7498e-15
25687.11 8.8716e-15
25924.8 8.6896e-15
26104.52 8.6497e-15
26285.46 8.4333e-15
26528.68 8.3368e-15
26712.56 8.1658e-15
26897.74 8.0353e-15
27084.17 7.9068e-15
27271.89 7.7268e-15
27524.25 7.6033e-15
27715.03 7.4302e-15
27907.15 7.3282e-15
28100.58 7.1779e-15
28295.38 7.0469e-15
28491.5 6.9024e-15
28689.02 6.7608e-15
28887.86 6.6374e-15
29088.12 6.5013e-15
29289.74 6.368e-15
29492.78 6.2373e-15
29697.2 6.1235e-15
29903.07 5.9979e-15
30110.33 5.8884e-15
30319.03 5.781e-15
30529.21 5.7016e-15
30670.12 5.6105e-15
30882.73 5.5081e-15
31096.78 5.42e-15
31312.36 5.3333e-15
31529.39 5.2481e-15
31674.91 5.1523e-15
31894.49 5.0816e-15
32115.55 5.0003e-15
32263.82 4.9317e-15
32487.44 4.8753e-15
32712.62 4.8865e-15
32863.64 5.0234e-15
33091.42 4.9545e-15
33320.82 4.6238e-15
33474.61 4.4668e-15
33706.63 4.3451e-15
33862.24 4.2462e-15
34096.94 4.1495e-15
34333.31 4.0738e-15
34491.78 3.9994e-15
34730.85 3.9174e-15
34891.18 3.8459e-15
35133.02 3.7757e-15
35295.17 3.6898e-15
35539.85 3.6224e-15
35703.88 3.5563e-15
35868.71 3.4914e-15
36117.32 3.4277e-15
36284.02 3.3574e-15
36535.55 3.2885e-15
36704.18 3.2285e-15
36873.59 3.155e-15
37129.2 3.0974e-15
37300.57 3.0479e-15
37472.73 2.9717e-15
37732.5 2.9309e-15
37906.65 2.8774e-15
38081.61 2.8249e-15
38257.42 2.7733e-15
38522.58 2.7227e-15
38700.43 2.6669e-15
38879.05 2.6182e-15
39058.49 2.5763e-15
39329.25 2.5293e-15
39510.78 2.4774e-15
39693.14 2.4322e-15
39876.38 2.3768e-15
40060.43 2.3442e-15
40338.1 2.3067e-15
40524.32 2.2594e-15
40711.36 2.2233e-15
40899.26 2.1878e-15
41088.03 2.1528e-15
41277.71 2.1184e-15
41468.23 2.0797e-15
41659.62 2.0464e-15
41851.95 2.0091e-15
42142.03 1.9724e-15
42336.53 1.9498e-15
42531.99 1.9143e-15
42728.29 1.888e-15
42925.5 1.8113e-15
43123.67 1.7338e-15
43322.7 1.7298e-15
43522.66 1.6634e-15
43723.58 1.6255e-15
43925.39 1.5959e-15
44128.12 1.5453e-15
44331.79 1.5205e-15
44536.45 1.4962e-15
44742.01 1.4555e-15
44948.51 1.4454e-15
45052.17 1.4191e-15
45260.11 1.3932e-15
45469.0 1.3804e-15
45678.86 1.3614e-15
45889.74 1.3243e-15
46101.54 1.3213e-15
46314.32 1.3002e-15
46528.14 1.2853e-15
46742.89 1.2764e-15
46850.63 1.256e-15
47066.87 1.2359e-15
47284.16 1.2331e-15
47502.4 1.2078e-15
47721.64 1.1967e-15
47941.95 1.183e-15
48052.46 1.1588e-15
48274.24 1.1588e-15
48497.05 1.1376e-15
48720.94 1.1194e-15
48945.81 1.1066e-15
49058.63 1.0914e-15
49285.06 1.0814e-15
49512.59 1.0641e-15
49741.11 1.0593e-15
49855.77 1.04e-15
50085.93 1.0327e-15
50317.1 1.0208e-15
50549.34 1.0068e-15
50665.85 9.9867e-16
50782.64 9.952e-16
50899.76 9.9174e-16
51017.08 9.8603e-16
51134.68 9.7809e-16
51252.55 9.747e-16
51370.69 9.6909e-16
51489.11 9.6573e-16
51607.85 9.6017e-16
51726.81 9.5685e-16
51846.04 9.5134e-16
51965.55 9.4587e-16
52085.33 9.4043e-16
52205.39 9.3503e-16
52325.73 9.2965e-16
52446.4 9.2644e-16
52567.3 9.2324e-16
52688.47 9.2217e-16
52809.92 9.1688e-16
52931.65 9.0743e-16
53053.66 9.043e-16
53176.01 8.9911e-16
53298.59 8.9807e-16
53421.44 8.9498e-16
53544.58 8.8985e-16
53668.01 8.8679e-16
53791.72 8.8374e-16
53915.71 8.7867e-16
54040.05 8.7565e-16
54164.62 8.7064e-16
54289.47 8.6565e-16
54414.61 8.6268e-16
54540.04 8.617e-16
54665.76 8.5677e-16
54791.77 8.5186e-16
54918.13 8.4894e-16
55044.72 8.4409e-16
55171.6 8.412e-16
55298.77 8.4219e-16
55426.24 8.393e-16
55554.0 8.3067e-16
55682.12 8.3165e-16
55810.47 8.3072e-16
55939.12 8.2598e-16
56068.06 8.2316e-16
56197.3 8.2224e-16
56326.84 8.1754e-16
56456.68 8.1663e-16
56586.87 8.1572e-16
56717.31 8.1482e-16
56848.05 8.1204e-16
56979.09 8.0927e-16
57110.43 8.1024e-16
57242.07 8.0934e-16
57374.08 8.0845e-16
57506.33 8.0942e-16
57638.89 8.0852e-16
57771.75 8.0763e-16
57904.92 8.1047e-16
58038.39 8.1144e-16
58172.18 8.1055e-16
58306.33 8.134e-16
58440.73 8.1626e-16
58575.44 8.1913e-16
58710.46 8.2012e-16
58845.79 8.249e-16
58981.44 8.2972e-16
59069.99 8.4834e-16
59378.93 8.4905e-16
59687.86 8.77e-16
59996.8 9.6122e-16
60305.75 9.6089e-16
60614.68 9.5602e-16
60923.61 1.0223e-15
61232.56 1.1718e-15
61541.5 1.4818e-15
61850.43 1.7062e-15
62159.37 1.8532e-15
62468.31 1.7136e-15
62777.25 1.4606e-15
63086.19 1.2844e-15
63395.13 1.124e-15
63704.07 1.0375e-15
64013.0 9.5049e-16
64321.94 9.1714e-16
64630.88 8.0279e-16
64939.82 7.9524e-16
65248.75 7.4526e-16
65557.7 7.5601e-16
65866.63 7.6704e-16
66175.57 7.5339e-16
66484.52 7.5878e-16
66793.45 7.7359e-16
67102.38 7.8057e-16
67411.33 7.4679e-16
67720.26 7.7418e-16
68029.21 7.6375e-16
68338.14 7.6526e-16
68647.08 7.7404e-16
68956.03 8.1495e-16
69264.95 8.0138e-16
69573.9 8.4559e-16
69882.84 8.7861e-16
70191.77 8.0667e-16
70500.72 7.4989e-16
70809.65 7.6942e-16
71118.59 7.7843e-16
71427.53 7.9869e-16
71736.46 8.0451e-16
72045.41 8.1342e-16
72354.34 8.8176e-16
72663.28 9.215e-16
72972.23 9.6246e-16
73281.16 9.5122e-16
73590.1 1.0086e-15
73899.04 1.1298e-15
74207.98 1.2132e-15
74516.91 1.2614e-15
74825.85 1.3175e-15
75114.57 1.4665e-15
75134.79 1.4366e-15
75443.74 1.5053e-15
75733.67 1.6608e-15
75752.67 1.5826e-15
76352.78 1.6545e-15
76971.88 1.5584e-15
77591.0 1.5103e-15
78210.1 1.4629e-15
78829.22 1.353e-15
79448.32 1.1877e-15
80067.43 1.0483e-15
80686.55 9.074e-16
81305.65 8.1777e-16
81924.75 7.9721e-16
82543.86 7.8296e-16
83162.97 7.9776e-16
83782.09 7.9425e-16
84401.19 8.3483e-16
85020.3 8.768e-16
85639.41 9.1224e-16
86258.53 8.9216e-16
86877.62 7.878e-16
87496.73 6.6344e-16
88115.84 5.6491e-16
88734.95 4.8054e-16
89354.05 4.1923e-16
89973.16 4.2206e-16
90592.27 3.8299e-16
91211.39 3.6194e-16
91830.49 3.5779e-16
92449.6 3.5813e-16
93068.71 3.4974e-16
93687.82 3.4776e-16
94306.92 3.3514e-16
94926.02 3.3288e-16
95545.14 3.4061e-16
96164.25 3.5934e-16
96783.35 3.8685e-16
97402.47 3.4463e-16
98021.58 3.1903e-16
98640.69 3.0747e-16
99259.8 3.0447e-16
99878.86 3.0309e-16
100498.02 3.0304e-16
101117.08 2.9701e-16
101736.26 2.8546e-16
102355.32 2.8354e-16
102974.48 2.8149e-16
103593.56 2.8681e-16
104212.63 3.0685e-16
104831.79 3.2313e-16
105450.85 3.4752e-16
106070.02 3.3077e-16
106689.09 3.4155e-16
107308.15 3.3925e-16
107927.32 3.4044e-16
108546.39 3.4782e-16
109165.55 3.9165e-16
109784.61 4.6135e-16
110403.78 5.0765e-16
111022.85 5.9953e-16
111641.92 9.1183e-16
112261.08 1.177e-15
112880.15 1.0937e-15
113499.32 8.5593e-16
114118.38 6.9013e-16
114737.55 5.7551e-16
115356.61 5.0188e-16
115975.68 4.4119e-16
116594.85 4.0535e-16
117213.91 3.883e-16
117833.07 3.7924e-16
118452.14 3.931e-16
119071.31 4.0693e-16
119690.38 4.1779e-16
120309.44 3.981e-16
120928.61 3.7943e-16
121547.68 3.6971e-16
122166.84 3.7543e-16
122785.9 3.9952e-16
123404.98 4.0273e-16
124024.14 4.0305e-16
124643.21 4.2131e-16
125262.37 4.3887e-16
125881.44 4.6524e-16
126500.6 4.8e-16
127119.67 5.06e-16
127738.74 5.9853e-16
128357.91 5.6132e-16
128976.97 3.6934e-16
129596.14 3.034e-16
130215.2 2.7862e-16
130834.27 2.6686e-16
131453.43 2.6906e-16
132072.5 2.5907e-16
132691.67 2.6086e-16
133310.73 2.5674e-16
133929.89 2.6645e-16
134548.97 2.6011e-16
135168.04 2.4794e-16
135787.2 2.4402e-16
136406.26 2.3302e-16
137025.43 2.3312e-16
137644.5 2.1802e-16
138263.67 2.1101e-16
138882.72 2.0763e-16
139501.8 2.1299e-16
140120.96 2.1397e-16
140740.03 2.1309e-16
141359.18 2.1734e-16
141978.26 2.2999e-16
142597.42 2.1465e-16
143216.5 1.9937e-16
143835.55 1.9315e-16
144454.73 1.8357e-16
144987.45 1.901e-16
145901.64 1.808e-16
146815.93 1.6467e-16
147730.13 1.6816e-16
148644.31 1.6405e-16
149558.51 1.7761e-16
150472.8 1.5983e-16
151387.0 1.6735e-16
152301.18 1.6776e-16
153215.47 1.7373e-16
154129.67 1.6884e-16
155043.85 2.1352e-16
155958.05 2.2649e-16
156872.34 1.7515e-16
157786.54 1.8004e-16
158700.73 1.8114e-16
159615.02 1.8008e-16
160529.22 1.8208e-16
161443.4 1.7848e-16
162357.69 2.0178e-16
163271.89 2.2875e-16
164186.07 2.814e-16
165100.27 2.7598e-16
166014.58 2.4522e-16
166928.74 2.4119e-16
167842.94 2.4659e-16
168757.14 2.4818e-16
169671.43 3.2348e-16
170585.63 3.5559e-16
171499.83 2.8826e-16
172414.12 2.4364e-16
173328.3 2.4719e-16
174242.5 2.4418e-16
175156.79 1.9739e-16
176070.98 1.7878e-16
176985.18 1.7684e-16
177899.36 1.8427e-16
178813.65 1.6874e-16
179727.85 1.5891e-16
180642.03 1.5345e-16
181556.32 1.4405e-16
182470.52 1.4769e-16
183384.71 1.3016e-16
184299.0 1.3687e-16
185213.2 1.451e-16
186127.39 1.6008e-16
187041.58 2.2664e-16
187955.87 1.861e-16
188870.07 1.4081e-16
189784.25 1.3568e-16
190698.56 1.3062e-16
191612.76 1.3773e-16
192526.92 1.3201e-16
193441.12 1.1617e-16
194355.43 1.1666e-16
195269.61 1.194e-16
196183.81 1.1349e-16
197098.1 1.1751e-16
198012.28 1.1601e-16
198926.48 1.0811e-16
199840.68 1.11e-16
200754.97 1.0847e-16
201669.16 1.1996e-16
202583.35 1.118e-16
203497.65 1.1062e-16
204945.36 1.0669e-16
206695.16 1.125e-16
208445.97 1.0838e-16
210197.8 1.0423e-16
211950.5 1.1191e-16
213704.1 1.046e-16
215458.7 9.9251e-17
217214.22 1.0514e-16
218970.71 1.0701e-16
220728.2 1.0616e-16
222486.59 1.0064e-16
224245.99 1.0694e-16
226006.27 1.0857e-16
227767.54 1.0055e-16
229529.82 9.8385e-17
231293.0 1.0101e-16
233057.18 9.864e-17
234822.36 1.0428e-16
236588.43 1.0016e-16
238355.6 9.7963e-17
240123.57 1.0031e-16
241892.61 9.7776e-17
243662.68 9.7782e-17
245433.63 9.5967e-17
247205.57 9.6063e-17
248978.53 9.4865e-17
250752.37 9.6987e-17
252527.31 9.7495e-17
254303.16 9.4233e-17
256080.1 9.6062e-17
257857.91 1.1011e-16
259636.77 1.1215e-16
261416.59 9.8714e-17
263197.41 9.2767e-17
264979.23 8.6933e-17
266762.07 8.8126e-17
268545.88 8.6116e-17
270330.69 8.4648e-17
272116.49 8.6852e-17
273903.29 8.6612e-17
275691.22 8.4732e-17
277480.01 8.3746e-17
279269.8 8.6836e-17
281060.69 1.0325e-16
282852.6 1.0031e-16
284645.38 8.1407e-17
286439.25 7.8722e-17
288234.16 7.7969e-17
290030.15 7.9656e-17
291827.11 8.0516e-17
293625.0 7.9283e-17
295424.05 8.2341e-17
297224.03 7.874e-17
299025.07 7.8532e-17
300827.14 7.6502e-17
302630.2 7.926e-17
304434.36 7.6577e-17
306239.51 8.0805e-17
308045.66 7.8105e-17
309852.9 8.2215e-17
311661.27 7.8442e-17
313470.59 7.6658e-17
315280.95 7.9635e-17
317092.27 7.9876e-17
318904.81 7.6681e-17
320718.25 8.2064e-17
322532.85 8.4755e-17
324348.37 7.8553e-17
326165.09 8.1284e-17
327982.83 8.1989e-17
329801.5 8.5154e-17
331621.33 8.8176e-17
333442.25 1.2682e-16
335264.23 1.3773e-16
337087.27 8.154e-17
338911.33 8.3998e-17
340736.43 7.8917e-17
342562.64 7.4372e-17
344390.04 7.9238e-17
346218.31 1.4748e-16
348047.8 2.1917e-16
