# col1 col2
# An Atlas of Galaxy Spectral Energy Distributions from the Ultraviolet to the Mid-Infrared
# Brown et al. (2014)
# http://dx.doi.org/10.5072/03/529D3551F0117
# 
# Column 1 : Restframe Wavelength (Angstrom)
# Column 2 : Flux per unit wavelength (ergs/s/cm^2/Angstrom)
# Column 3 : Observed wavelength (Angstrom)
# Column 4 : Source (0 = model, 1 = Optical Spectrum, 2 = Akari, 3 = Spitzer IRS)
# 
100.01 3.1662e-27
102.1 4.8902e-27
104.0 6.8728e-27
105.93 9.9525e-27
107.9 1.4445e-26
109.91 2.5382e-26
114.03 4.8095e-26
118.04 8.4467e-26
121.07 3.093e-25
125.04 5.1996e-25
127.07 6.6033e-25
127.95 7.4932e-25
130.93 1.0456e-24
132.14 1.2742e-24
133.98 1.5742e-24
137.1 2.3374e-24
139.97 3.1436e-24
142.9 7.2799e-24
146.9 1.7207e-23
151.02 2.4171e-23
154.89 3.3954e-23
158.87 4.7258e-23
161.82 5.9865e-23
165.97 8.1609e-23
169.84 1.0848e-22
173.0 1.3397e-22
177.03 1.7482e-22
179.9 2.1198e-22
181.98 2.4048e-22
185.8 3.0738e-22
191.0 4.1128e-22
194.1 4.8957e-22
198.17 6.0869e-22
201.85 7.5164e-22
205.13 8.7835e-22
209.91 1.0844e-21
215.79 1.4913e-21
219.8 1.7953e-21
222.86 2.0315e-21
227.0 2.4288e-21
230.16 4.0837e-21
233.9 7.2221e-21
239.9 1.079e-20
246.06 1.2229e-20
251.79 1.5198e-20
257.06 1.4429e-20
260.04 1.8236e-20
264.26 2.1109e-20
269.18 2.3821e-20
274.18 2.6695e-20
279.28 2.9641e-20
283.81 3.3145e-20
289.76 3.5957e-20
295.83 4.1129e-20
301.32 4.3708e-20
308.34 5.0678e-20
317.71 6.1777e-20
328.12 7.2564e-20
338.09 8.3687e-20
348.37 9.5403e-20
357.3 1.0805e-19
365.62 1.2266e-19
375.0 1.3574e-19
384.62 1.4611e-19
395.4 1.6808e-19
404.61 1.873e-19
414.03 2.0301e-19
421.73 2.1562e-19
429.57 2.29e-19
440.59 2.5272e-19
450.85 2.7135e-19
460.29 2.8675e-19
469.93 3.0723e-19
479.77 3.3143e-19
489.82 3.4697e-19
500.08 3.7685e-19
505.87 4.3007e-19
511.72 7.6541e-19
520.04 8.128e-19
529.71 8.7281e-19
539.55 8.8072e-19
549.59 1.1501e-18
559.8 1.3919e-18
570.21 1.5975e-18
579.48 1.6085e-18
590.25 1.9644e-18
599.84 2.0709e-18
609.59 2.4495e-18
619.49 2.9307e-18
629.56 3.2422e-18
639.79 3.4253e-18
650.18 3.9494e-18
657.71 4.2627e-18
665.33 4.6433e-18
674.58 4.918e-18
685.54 4.9952e-18
695.08 6.4339e-18
704.75 6.286e-18
716.2 7.8357e-18
726.16 8.3742e-18
734.57 8.9123e-18
744.79 1.0205e-17
755.15 1.1108e-17
765.66 1.2007e-17
774.52 1.3379e-17
785.3 1.4763e-17
794.39 1.5745e-17
805.44 1.6783e-17
814.77 1.7774e-17
824.2 1.9847e-17
835.67 1.7273e-17
845.35 2.1839e-17
855.14 2.3073e-17
865.04 2.5232e-17
875.05 2.7528e-17
885.19 3.031e-17
895.44 3.2463e-17
905.81 3.3433e-17
914.19 5.2262e-17
924.77 3.5722e-16
935.48 7.9924e-16
944.14 1.5763e-15
955.07 2.2406e-15
963.91 2.6872e-15
975.07 5.0697e-16
984.09 2.6297e-15
995.49 2.7074e-15
1004.7 3.7191e-15
1013.99 3.5102e-15
1025.74 1.4619e-15
1035.23 2.6411e-15
1044.8 4.8935e-15
1054.47 4.9142e-15
1064.23 4.0952e-15
1074.08 4.8426e-15
1084.01 4.026e-15
1094.04 5.1482e-15
1104.17 5.0283e-15
1114.38 4.9679e-15
1124.7 4.5805e-15
1135.1 5.6187e-15
1145.61 5.1921e-15
1156.21 5.534e-15
1164.22 5.7816e-15
1174.99 4.263e-15
1185.86 5.6673e-15
1194.08 4.1054e-15
1205.13 3.0902e-15
1216.28 1.7972e-15
1224.72 3.8953e-15
1236.05 5.8495e-15
1244.62 6.532e-15
1256.13 6.3915e-15
1264.84 5.617e-15
1273.61 7.1187e-15
1285.39 7.463e-15
1294.3 6.2486e-15
1306.28 6.1982e-15
1315.33 7.5182e-15
1324.45 7.3106e-15
1333.63 6.6647e-15
1345.97 7.7126e-15
1355.3 7.5685e-15
1364.69 6.9471e-15
1374.15 7.2708e-15
1383.68 7.4192e-15
1396.48 6.6176e-15
1406.16 6.9095e-15
1415.91 7.0825e-15
1425.72 7.2428e-15
1435.61 7.2547e-15
1442.23 7.6341e-15
1445.56 7.7504e-15
1455.58 7.6034e-15
1465.67 7.1398e-15
1475.83 7.1343e-15
1486.06 7.2611e-15
1496.36 7.39e-15
1506.73 7.1002e-15
1513.68 6.4618e-15
1517.17 6.8689e-15
1524.18 6.7137e-15
1534.74 6.0056e-15
1545.38 6.5484e-15
1556.09 6.2187e-15
1563.27 6.3349e-15
1574.11 6.7497e-15
1585.02 7.0278e-15
1596.01 7.2167e-15
1603.38 7.0525e-15
1614.49 7.0931e-15
1625.68 6.7658e-15
1633.18 7.1663e-15
1644.5 7.2737e-15
1655.9 6.7795e-15
1663.55 7.3986e-15
1671.23 6.7004e-15
1675.08 7.4399e-15
1686.69 7.7085e-15
1694.47 7.3097e-15
1706.22 7.0677e-15
1714.1 6.8106e-15
1725.98 6.7848e-15
1733.94 7.185e-15
1745.96 7.0267e-15
1754.02 7.4581e-15
1766.18 6.8853e-15
1774.33 7.1085e-15
1786.63 7.2119e-15
1794.88 7.6188e-15
1803.16 7.5808e-15
1815.66 7.1276e-15
1824.04 7.2403e-15
1836.69 6.9977e-15
1845.16 6.4975e-15
1853.68 6.5543e-15
1866.53 6.7249e-15
1875.15 7.1688e-15
1883.8 6.7019e-15
1896.86 6.4612e-15
1905.62 6.7928e-15
1914.41 6.6035e-15
1923.25 6.4936e-15
1936.58 6.6152e-15
1945.52 6.938e-15
1954.5 6.5603e-15
1968.05 7.0621e-15
1977.13 7.2209e-15
1986.26 6.8746e-15
1995.42 6.7126e-15
2004.63 6.8474e-15
2013.89 6.6857e-15
2023.18 6.9146e-15
2037.21 6.6324e-15
2046.61 6.8432e-15
2056.06 6.5742e-15
2065.55 6.6285e-15
2075.08 7.0142e-15
2079.86 6.7492e-15
2084.66 6.9427e-15
2094.28 6.608e-15
2103.95 6.6619e-15
2113.66 6.7007e-15
2123.42 6.8019e-15
2133.22 6.3698e-15
2143.06 6.5105e-15
2152.96 6.7003e-15
2162.89 6.5097e-15
2172.88 6.4419e-15
2182.91 6.3747e-15
2192.98 6.6358e-15
2203.11 6.4612e-15
2213.27 6.1905e-15
2223.49 6.0135e-15
2233.75 6.3902e-15
2244.06 6.1219e-15
2254.42 5.919e-15
2264.83 6.0087e-15
2275.28 6.1506e-15
2285.78 6.3215e-15
2296.33 6.0357e-15
2306.93 6.0902e-15
2317.58 5.9094e-15
2322.93 4.8865e-15
2333.65 5.6223e-15
2344.42 5.443e-15
2355.24 5.8717e-15
2366.11 5.4788e-15
2377.03 5.6705e-15
2382.51 5.3099e-15
2393.51 5.6366e-15
2404.56 5.4696e-15
2415.66 5.5834e-15
2426.81 5.8999e-15
2432.4 5.7059e-15
2443.63 6.0155e-15
2454.91 5.9461e-15
2466.24 5.9318e-15
2477.62 5.7697e-15
2483.33 5.9379e-15
2494.8 5.6702e-15
2506.31 6.2169e-15
2512.09 5.6893e-15
2517.88 5.8016e-15
2523.69 5.5852e-15
2535.33 5.6496e-15
2547.04 5.6234e-15
2552.91 5.9771e-15
2564.69 5.8814e-15
2576.53 6.187e-15
2582.47 6.1656e-15
2594.39 6.1231e-15
2606.36 5.9563e-15
2612.37 5.8949e-15
2624.43 6.1587e-15
2636.54 6.3168e-15
2642.62 6.8078e-15
2654.82 6.9346e-15
2667.07 6.4572e-15
2673.22 6.7074e-15
2685.56 6.7544e-15
2697.96 6.4806e-15
2704.18 6.6548e-15
2716.66 6.3851e-15
2722.92 6.3781e-15
2735.49 6.6793e-15
2748.12 5.9673e-15
2754.45 6.0996e-15
2767.17 6.3293e-15
2773.54 6.6051e-15
2786.35 6.3232e-15
2792.77 5.2296e-15
2805.66 5.5915e-15
2812.13 6.6537e-15
2825.11 6.9045e-15
2838.15 6.7175e-15
2844.69 6.5727e-15
2857.82 6.3948e-15
2864.41 6.8923e-15
2877.63 6.9255e-15
2884.26 6.9502e-15
2897.58 6.9356e-15
2910.95 7.4504e-15
2931.13 7.2582e-15
2951.45 7.186e-15
2971.91 7.3309e-15
2992.51 7.3762e-15
3013.25 7.4907e-15
3027.16 7.5275e-15
3048.14 7.5745e-15
3069.27 7.6395e-15
3090.54 7.7229e-15
3111.97 7.7716e-15
3133.54 7.7135e-15
3148.0 7.7699e-15
3169.82 7.8554e-15
3191.8 7.5671e-15
3206.53 7.8183e-15
3228.76 7.6014e-15
3251.14 8.0109e-15
3273.67 8.2886e-15
3288.78 8.2734e-15
3311.58 8.2889e-15
3319.21 8.2244e-15
3326.86 8.389e-15
3334.53 8.6163e-15
3342.22 8.2022e-15
3349.93 8.5811e-15
3357.65 8.4364e-15
3365.39 7.8482e-15
3373.15 7.7693e-15
3380.92 8.2224e-15
3388.72 8.5431e-15
3396.53 8.2458e-15
3404.36 8.5281e-15
3412.2 8.2503e-15
3420.07 8.5328e-15
3427.96 8.5647e-15
3435.86 8.6764e-15
3443.78 8.1276e-15
3451.72 8.7617e-15
3459.67 8.3987e-15
3467.65 8.3915e-15
3475.64 8.501e-15
3483.65 8.4938e-15
3491.69 8.5848e-15
3499.74 8.113e-15
3507.8 8.578e-15
3515.89 8.2336e-15
3523.99 8.5861e-15
3532.12 8.7499e-15
3540.26 8.8963e-15
3548.42 9.15e-15
3556.6 8.8639e-15
3564.8 8.9503e-15
3568.81 8.177e-15
3571.51 9.5514e-15
3574.21 7.8395e-15
3576.91 6.3187e-15
3579.61 1.1019e-14
3582.31 7.5159e-15
3585.01 6.1077e-15
3587.71 6.9573e-15
3590.41 8.3224e-15
3593.11 8.465e-15
3595.81 6.228e-15
3598.51 5.7758e-15
3601.21 8.4484e-15
3603.91 8.8163e-15
3606.61 6.9823e-15
3609.31 8.0329e-15
3612.01 8.6823e-15
3614.71 7.6282e-15
3617.41 9.9162e-15
3620.11 1.0291e-14
3622.81 1.0427e-14
3625.51 1.0034e-14
3628.21 9.9008e-15
3630.91 1.0697e-14
3633.61 9.5741e-15
3636.31 8.6212e-15
3639.01 8.9455e-15
3641.71 7.7029e-15
3644.41 9.5608e-15
3647.11 9.3642e-15
3649.81 7.3395e-15
3652.51 7.2485e-15
3655.21 7.6616e-15
3657.91 1.0332e-14
3660.61 9.7031e-15
3663.31 8.7233e-15
3666.01 9.0548e-15
3668.71 9.8755e-15
3671.41 9.2059e-15
3674.11 8.8429e-15
3676.81 8.2756e-15
3679.51 8.6666e-15
3682.21 8.5955e-15
3684.91 8.3979e-15
3687.61 7.8721e-15
3690.31 8.581e-15
3693.01 8.6813e-15
3695.71 8.4701e-15
3698.41 1.0693e-14
3701.11 9.8624e-15
3703.81 1.1144e-14
3706.51 8.6684e-15
3709.21 7.4185e-15
3711.91 9.2497e-15
3714.61 9.407e-15
3717.31 9.7363e-15
3720.01 1.1617e-14
3722.71 1.3399e-14
3725.41 1.3332e-14
3728.11 1.6493e-14
3730.81 1.5006e-14
3733.51 1.2361e-14
3736.21 1.068e-14
3738.91 9.6153e-15
3741.61 9.7968e-15
3744.31 1.0158e-14
3747.01 9.2779e-15
3749.71 8.9266e-15
3752.41 7.8984e-15
3755.11 9.2414e-15
3757.81 1.1783e-14
3760.51 1.3006e-14
3763.21 1.1697e-14
3765.91 1.0075e-14
3768.61 9.4428e-15
3771.31 9.5183e-15
3774.01 1.255e-14
3776.71 1.1272e-14
3779.41 1.3486e-14
3782.11 1.3468e-14
3784.81 1.427e-14
3787.51 1.3244e-14
3790.21 1.2607e-14
3792.91 1.0998e-14
3795.61 1.2157e-14
3798.31 9.2442e-15
3801.01 9.6304e-15
3803.71 1.1213e-14
3806.41 1.2721e-14
3809.11 1.3609e-14
3811.81 1.2709e-14
3814.51 1.3173e-14
3817.21 1.3476e-14
3819.91 1.4919e-14
3822.61 1.395e-14
3825.31 1.4303e-14
3828.01 1.1529e-14
3830.71 9.7596e-15
3833.41 9.8091e-15
3836.11 9.612e-15
3838.81 9.652e-15
3841.51 1.1391e-14
3844.21 1.2985e-14
3846.91 1.3718e-14
3849.61 1.5116e-14
3852.31 1.5388e-14
3855.01 1.6124e-14
3857.71 1.4571e-14
3860.41 1.4623e-14
3863.11 1.5159e-14
3865.81 1.6603e-14
3868.51 1.5869e-14
3871.21 1.5098e-14
3873.91 1.5429e-14
3876.61 1.3875e-14
3879.31 1.3809e-14
3882.01 1.2317e-14
3884.71 1.0382e-14
3887.41 1.0387e-14
3890.11 9.6327e-15
3892.81 1.0138e-14
3895.51 1.189e-14
3898.21 1.3126e-14
3900.91 1.3972e-14
3903.61 1.4787e-14
3906.31 1.4834e-14
3909.01 1.5356e-14
3911.71 1.6278e-14
3914.41 1.5971e-14
3917.11 1.508e-14
3919.81 1.6559e-14
3922.51 1.6162e-14
3925.21 1.5711e-14
3927.91 1.3382e-14
3930.61 1.209e-14
3933.31 1.1458e-14
3936.01 1.1363e-14
3938.71 1.3001e-14
3941.41 1.4412e-14
3944.11 1.4975e-14
3946.81 1.5662e-14
3949.51 1.5463e-14
3952.21 1.5896e-14
3954.91 1.5793e-14
3957.61 1.4543e-14
3960.31 1.3041e-14
3963.01 1.1657e-14
3965.71 9.4657e-15
3968.41 8.2747e-15
3971.11 8.8225e-15
3973.81 9.354e-15
3976.51 1.0896e-14
3979.21 1.3882e-14
3981.91 1.4192e-14
3984.61 1.4749e-14
3987.31 1.5454e-14
3990.01 1.5722e-14
3992.71 1.6465e-14
3995.41 1.7045e-14
3998.11 1.5913e-14
4000.81 1.6638e-14
4003.51 1.7158e-14
4006.21 1.8065e-14
4008.91 1.8837e-14
4011.61 1.7281e-14
4014.31 1.7089e-14
4017.01 1.832e-14
4019.71 1.7737e-14
4022.41 1.7402e-14
4025.11 1.7651e-14
4027.81 1.7564e-14
4030.51 1.646e-14
4033.21 1.7299e-14
4035.91 1.7492e-14
4038.61 1.7908e-14
4041.31 1.7599e-14
4044.01 1.7683e-14
4046.71 1.6769e-14
4049.41 1.6914e-14
4052.11 1.7349e-14
4054.81 1.808e-14
4057.51 1.7536e-14
4060.21 1.6116e-14
4062.91 1.7137e-14
4065.61 1.707e-14
4068.31 1.6846e-14
4071.01 1.5998e-14
4073.71 1.5826e-14
4076.41 1.6847e-14
4079.11 1.669e-14
4081.81 1.6853e-14
4084.51 1.5705e-14
4087.21 1.5225e-14
4089.91 1.5516e-14
4092.61 1.4161e-14
4095.31 1.4424e-14
4098.01 1.2121e-14
4100.71 1.038e-14
4103.41 1.0778e-14
4106.11 1.283e-14
4108.81 1.3701e-14
4111.51 1.3513e-14
4114.21 1.481e-14
4116.91 1.5383e-14
4119.61 1.5712e-14
4122.31 1.52e-14
4125.01 1.4902e-14
4127.71 1.5604e-14
4130.41 1.6667e-14
4133.11 1.5687e-14
4135.81 1.6341e-14
4138.51 1.7031e-14
4141.21 1.7018e-14
4143.91 1.6488e-14
4146.61 1.6844e-14
4149.31 1.7172e-14
4152.01 1.5573e-14
4154.71 1.5809e-14
4157.41 1.7502e-14
4160.11 1.6775e-14
4162.81 1.7742e-14
4165.51 1.6884e-14
4168.21 1.6464e-14
4170.91 1.5641e-14
4173.61 1.6143e-14
4176.31 1.489e-14
4179.01 1.5198e-14
4181.71 1.7183e-14
4184.41 1.6704e-14
4187.11 1.6697e-14
4189.81 1.5484e-14
4192.51 1.5403e-14
4195.21 1.5301e-14
4197.91 1.5306e-14
4200.61 1.5302e-14
4203.31 1.5321e-14
4206.01 1.4846e-14
4208.71 1.5995e-14
4211.41 1.5508e-14
4214.11 1.5559e-14
4216.81 1.5873e-14
4219.51 1.5789e-14
4222.21 1.5628e-14
4224.91 1.4894e-14
4227.61 1.5153e-14
4230.31 1.5706e-14
4233.01 1.5485e-14
4235.71 1.5943e-14
4238.41 1.5709e-14
4241.11 1.6013e-14
4243.81 1.6646e-14
4246.51 1.5476e-14
4249.21 1.5775e-14
4251.91 1.6085e-14
4254.61 1.604e-14
4257.31 1.6533e-14
4260.01 1.619e-14
4262.71 1.6226e-14
4265.41 1.6277e-14
4268.11 1.6527e-14
4270.81 1.587e-14
4273.51 1.5035e-14
4276.21 1.562e-14
4278.91 1.5561e-14
4281.61 1.5524e-14
4284.31 1.4789e-14
4287.01 1.5155e-14
4289.71 1.4388e-14
4292.41 1.4145e-14
4295.11 1.4397e-14
4297.81 1.4432e-14
4300.51 1.3845e-14
4303.21 1.3213e-14
4305.91 1.3234e-14
4308.61 1.3669e-14
4311.31 1.3349e-14
4314.01 1.4173e-14
4316.71 1.4987e-14
4319.41 1.4729e-14
4322.11 1.4403e-14
4324.81 1.4621e-14
4327.51 1.4077e-14
4330.21 1.3896e-14
4332.91 1.3373e-14
4335.61 1.2371e-14
4338.31 1.1297e-14
4341.01 1.0815e-14
4343.71 1.1418e-14
4346.41 1.2091e-14
4349.11 1.2955e-14
4351.81 1.3488e-14
4354.51 1.4169e-14
4357.21 1.4841e-14
4359.91 1.5489e-14
4362.61 1.5829e-14
4365.31 1.5371e-14
4368.01 1.5527e-14
4370.71 1.5979e-14
4373.41 1.5785e-14
4376.11 1.5961e-14
4378.81 1.5847e-14
4381.51 1.5166e-14
4384.21 1.4909e-14
4386.91 1.4894e-14
4389.61 1.513e-14
4392.31 1.5472e-14
4395.01 1.6164e-14
4397.71 1.5922e-14
4400.41 1.5612e-14
4403.11 1.5417e-14
4405.81 1.5214e-14
4408.51 1.5361e-14
4411.21 1.5664e-14
4413.91 1.604e-14
4416.61 1.6303e-14
4419.31 1.6212e-14
4422.01 1.6193e-14
4424.71 1.6078e-14
4427.41 1.5956e-14
4430.11 1.6027e-14
4432.81 1.6257e-14
4435.51 1.5599e-14
4438.21 1.566e-14
4440.91 1.5947e-14
4443.61 1.5439e-14
4446.31 1.5866e-14
4449.01 1.6538e-14
4451.71 1.685e-14
4454.41 1.6734e-14
4457.11 1.5579e-14
4459.81 1.6075e-14
4462.51 1.5773e-14
4465.21 1.579e-14
4467.91 1.6506e-14
4470.61 1.6251e-14
4473.31 1.6916e-14
4476.01 1.6874e-14
4478.71 1.6851e-14
4481.41 1.6079e-14
4484.11 1.6792e-14
4486.81 1.6934e-14
4489.51 1.692e-14
4492.21 1.6786e-14
4494.91 1.6352e-14
4497.61 1.6555e-14
4500.31 1.7935e-14
4503.01 1.7641e-14
4505.71 1.754e-14
4508.41 1.7646e-14
4511.11 1.7527e-14
4513.81 1.7221e-14
4516.51 1.667e-14
4519.21 1.6775e-14
4521.91 1.6463e-14
4524.61 1.6578e-14
4527.31 1.5762e-14
4530.01 1.689e-14
4532.71 1.6883e-14
4535.41 1.6715e-14
4538.11 1.6454e-14
4540.81 1.6893e-14
4543.51 1.6731e-14
4546.21 1.6396e-14
4548.91 1.5821e-14
4551.61 1.5912e-14
4554.31 1.6367e-14
4557.01 1.6801e-14
4559.71 1.7083e-14
4562.41 1.6833e-14
4565.11 1.62e-14
4567.81 1.6795e-14
4570.51 1.6933e-14
4573.21 1.6557e-14
4575.91 1.724e-14
4578.61 1.6785e-14
4581.31 1.6325e-14
4584.01 1.6272e-14
4586.71 1.6771e-14
4589.41 1.6525e-14
4592.11 1.7077e-14
4594.81 1.5939e-14
4597.51 1.5903e-14
4600.21 1.6999e-14
4602.91 1.6996e-14
4605.61 1.6463e-14
4608.31 1.7748e-14
4611.01 1.7217e-14
4613.71 1.6946e-14
4616.41 1.687e-14
4619.11 1.733e-14
4621.81 1.7539e-14
4624.51 1.7145e-14
4627.21 1.709e-14
4629.91 1.7193e-14
4632.61 1.7159e-14
4635.31 1.7351e-14
4638.01 1.7185e-14
4640.71 1.6826e-14
4643.41 1.6379e-14
4646.11 1.629e-14
4648.81 1.6196e-14
4651.51 1.6445e-14
4654.21 1.6756e-14
4656.92 1.6258e-14
4659.62 1.6981e-14
4662.32 1.6376e-14
4665.02 1.6073e-14
4667.72 1.5909e-14
4670.42 1.5928e-14
4673.12 1.6387e-14
4675.82 1.6474e-14
4678.52 1.6146e-14
4681.22 1.6832e-14
4683.92 1.7413e-14
4686.62 1.7059e-14
4689.32 1.6607e-14
4692.02 1.674e-14
4694.72 1.6407e-14
4697.42 1.6031e-14
4700.12 1.7282e-14
4702.82 1.6172e-14
4705.52 1.661e-14
4708.22 1.5905e-14
4710.92 1.6724e-14
4713.62 1.6693e-14
4716.32 1.7003e-14
4719.02 1.6603e-14
4721.72 1.789e-14
4724.42 1.7269e-14
4727.12 1.6959e-14
4729.82 1.6029e-14
4732.52 1.7178e-14
4735.22 1.6635e-14
4737.92 1.7093e-14
4740.62 1.6841e-14
4743.32 1.7327e-14
4746.02 1.696e-14
4748.72 1.7194e-14
4751.42 1.7023e-14
4754.12 1.7e-14
4756.82 1.6888e-14
4759.52 1.7225e-14
4762.22 1.6474e-14
4764.92 1.6952e-14
4767.62 1.6099e-14
4770.32 1.6889e-14
4773.02 1.667e-14
4775.72 1.6913e-14
4778.42 1.7246e-14
4781.12 1.6958e-14
4783.82 1.6459e-14
4786.52 1.6409e-14
4789.22 1.6479e-14
4791.92 1.6447e-14
4794.62 1.6932e-14
4797.32 1.7371e-14
4800.02 1.6624e-14
4802.72 1.6527e-14
4805.42 1.6303e-14
4808.12 1.64e-14
4810.82 1.6969e-14
4813.52 1.6075e-14
4816.22 1.6294e-14
4818.92 1.6411e-14
4821.62 1.608e-14
4824.32 1.6163e-14
4827.02 1.6487e-14
4829.72 1.6224e-14
4832.42 1.6711e-14
4835.12 1.6761e-14
4837.82 1.6747e-14
4840.52 1.5749e-14
4843.22 1.5477e-14
4845.92 1.5008e-14
4848.62 1.4877e-14
4851.32 1.4668e-14
4854.02 1.3831e-14
4856.72 1.3077e-14
4859.42 1.291e-14
4862.12 1.3382e-14
4864.82 1.3283e-14
4867.52 1.3513e-14
4870.22 1.3398e-14
4872.92 1.399e-14
4875.62 1.4714e-14
4878.32 1.5729e-14
4881.02 1.5901e-14
4883.72 1.5543e-14
4886.42 1.5809e-14
4889.12 1.5276e-14
4891.82 1.5291e-14
4894.52 1.5897e-14
4897.22 1.654e-14
4899.92 1.6353e-14
4902.62 1.6738e-14
4905.32 1.6176e-14
4908.02 1.5752e-14
4910.72 1.6303e-14
4913.42 1.6082e-14
4916.12 1.5362e-14
4918.82 1.5986e-14
4921.52 1.5373e-14
4924.22 1.5552e-14
4926.92 1.5959e-14
4929.62 1.6818e-14
4932.32 1.5947e-14
4935.02 1.5699e-14
4937.72 1.6392e-14
4940.42 1.6159e-14
4943.12 1.6299e-14
4945.82 1.65e-14
4948.52 1.7037e-14
4951.22 1.6813e-14
4953.92 1.693e-14
4956.62 1.6447e-14
4959.32 1.6279e-14
4962.02 1.6194e-14
4964.72 1.6259e-14
4967.42 1.6446e-14
4970.12 1.6385e-14
4972.82 1.629e-14
4975.52 1.6469e-14
4978.22 1.6397e-14
4980.92 1.5797e-14
4983.62 1.5591e-14
4986.32 1.5925e-14
4989.02 1.5889e-14
4991.72 1.5499e-14
4994.42 1.5954e-14
4997.12 1.559e-14
4999.82 1.5404e-14
5002.52 1.5842e-14
5005.22 1.6914e-14
5007.92 1.7123e-14
5010.62 1.618e-14
5013.32 1.5545e-14
5016.02 1.5369e-14
5018.72 1.508e-14
5021.42 1.5479e-14
5024.12 1.5495e-14
5026.82 1.576e-14
5029.52 1.6163e-14
5032.22 1.5624e-14
5034.92 1.5602e-14
5037.62 1.5288e-14
5040.32 1.5269e-14
5043.02 1.5072e-14
5045.72 1.6082e-14
5048.42 1.5836e-14
5051.12 1.5167e-14
5053.82 1.5561e-14
5056.52 1.5913e-14
5059.22 1.6309e-14
5061.92 1.6509e-14
5064.62 1.6273e-14
5067.32 1.5991e-14
5070.02 1.5581e-14
5072.72 1.5968e-14
5075.42 1.5786e-14
5078.12 1.5138e-14
5080.82 1.5175e-14
5083.52 1.5222e-14
5086.22 1.5502e-14
5088.92 1.6049e-14
5091.62 1.5982e-14
5094.32 1.5961e-14
5097.02 1.6036e-14
5099.72 1.5497e-14
5102.42 1.6001e-14
5105.12 1.5786e-14
5107.82 1.5395e-14
5110.52 1.5093e-14
5113.22 1.5738e-14
5115.92 1.6272e-14
5118.62 1.6296e-14
5121.32 1.5369e-14
5124.02 1.514e-14
5126.72 1.5428e-14
5129.42 1.5098e-14
5132.12 1.5464e-14
5134.82 1.5114e-14
5137.52 1.5526e-14
5140.22 1.5246e-14
5142.92 1.4944e-14
5145.62 1.4988e-14
5148.32 1.4962e-14
5151.02 1.5036e-14
5153.72 1.5075e-14
5156.42 1.4994e-14
5159.12 1.5125e-14
5161.82 1.5171e-14
5164.52 1.4293e-14
5167.22 1.3422e-14
5169.92 1.328e-14
5172.62 1.4034e-14
5175.32 1.4458e-14
5178.02 1.4567e-14
5180.72 1.4416e-14
5183.42 1.4272e-14
5186.12 1.4408e-14
5188.82 1.4669e-14
5191.52 1.4821e-14
5194.22 1.5014e-14
5196.92 1.557e-14
5199.62 1.5717e-14
5202.32 1.5078e-14
5205.02 1.5311e-14
5207.72 1.4594e-14
5210.42 1.4782e-14
5213.12 1.5497e-14
5215.82 1.593e-14
5218.52 1.615e-14
5221.22 1.572e-14
5223.92 1.5025e-14
5226.62 1.4628e-14
5229.32 1.4857e-14
5232.02 1.5274e-14
5234.72 1.58e-14
5237.42 1.5899e-14
5240.12 1.5105e-14
5242.82 1.5698e-14
5245.52 1.545e-14
5248.22 1.5399e-14
5250.92 1.5417e-14
5253.62 1.5556e-14
5256.32 1.569e-14
5259.02 1.5481e-14
5261.72 1.4851e-14
5264.42 1.4296e-14
5267.12 1.4588e-14
5269.82 1.4291e-14
5272.52 1.4473e-14
5275.22 1.4879e-14
5277.92 1.5502e-14
5280.62 1.501e-14
5283.32 1.5292e-14
5286.02 1.5856e-14
5288.72 1.6034e-14
5291.42 1.5822e-14
5294.12 1.5801e-14
5296.82 1.5394e-14
5299.52 1.558e-14
5302.22 1.5759e-14
5304.92 1.5611e-14
5307.62 1.5835e-14
5310.32 1.6062e-14
5313.02 1.5228e-14
5315.72 1.5817e-14
5318.42 1.5238e-14
5321.12 1.4709e-14
5323.82 1.5289e-14
5326.52 1.4044e-14
5329.22 1.476e-14
5331.92 1.4893e-14
5334.62 1.5181e-14
5337.32 1.5378e-14
5340.02 1.5455e-14
5342.72 1.4812e-14
5345.42 1.4778e-14
5348.12 1.5397e-14
5350.82 1.5741e-14
5353.52 1.5889e-14
5356.22 1.6224e-14
5358.92 1.6427e-14
5361.62 1.594e-14
5364.32 1.4894e-14
5367.02 1.4063e-14
5369.72 1.5231e-14
5372.42 1.5404e-14
5375.12 1.5256e-14
5377.82 1.534e-14
5380.52 1.5688e-14
5383.22 1.5701e-14
5385.92 1.5457e-14
5388.62 1.5382e-14
5391.32 1.504e-14
5394.02 1.5177e-14
5396.72 1.4753e-14
5399.42 1.5212e-14
5402.12 1.5137e-14
5404.82 1.5006e-14
5407.52 1.5084e-14
5410.22 1.4659e-14
5412.92 1.4665e-14
5415.62 1.5168e-14
5418.32 1.571e-14
5421.02 1.5592e-14
5423.72 1.5648e-14
5426.42 1.5342e-14
5429.12 1.5094e-14
5431.82 1.5405e-14
5434.52 1.5293e-14
5437.22 1.5591e-14
5439.92 1.5405e-14
5442.62 1.5621e-14
5445.32 1.4249e-14
5448.02 1.5852e-14
5450.72 1.5078e-14
5453.42 1.5152e-14
5456.12 1.5416e-14
5458.82 1.5224e-14
5461.52 1.513e-14
5464.22 1.4621e-14
5466.92 1.5029e-14
5469.62 1.5045e-14
5472.32 1.5489e-14
5475.02 1.4869e-14
5477.72 1.485e-14
5480.42 1.5188e-14
5483.12 1.5438e-14
5485.82 1.5179e-14
5488.52 1.4986e-14
5491.22 1.4977e-14
5493.92 1.5143e-14
5496.62 1.5118e-14
5499.32 1.556e-14
5502.02 1.491e-14
5504.72 1.4473e-14
5507.42 1.4841e-14
5510.12 1.5392e-14
5512.82 1.4739e-14
5515.52 1.5667e-14
5518.22 1.4958e-14
5520.92 1.5222e-14
5523.62 1.4943e-14
5526.32 1.5172e-14
5529.02 1.4745e-14
5531.72 1.574e-14
5534.42 1.5557e-14
5537.12 1.4785e-14
5539.82 1.5099e-14
5542.52 1.5325e-14
5545.22 1.5195e-14
5547.92 1.5251e-14
5550.62 1.5176e-14
5553.32 1.5851e-14
5556.02 1.5167e-14
5558.72 1.5401e-14
5561.42 1.4947e-14
5564.12 1.4933e-14
5566.82 1.5357e-14
5569.52 1.5353e-14
5572.22 1.4726e-14
5574.92 1.5052e-14
5577.62 1.4752e-14
5580.32 1.5918e-14
5583.02 1.5389e-14
5585.72 1.5155e-14
5588.42 1.4663e-14
5591.12 1.4451e-14
5593.82 1.4056e-14
5596.52 1.3927e-14
5599.22 1.4941e-14
5601.92 1.5003e-14
5604.62 1.5124e-14
5607.32 1.5396e-14
5610.02 1.5781e-14
5612.72 1.5134e-14
5615.42 1.5236e-14
5618.12 1.5082e-14
5620.82 1.4789e-14
5623.52 1.5024e-14
5626.22 1.5479e-14
5628.92 1.5327e-14
5631.62 1.5392e-14
5634.32 1.5769e-14
5637.02 1.4593e-14
5639.72 1.4593e-14
5642.42 1.521e-14
5645.12 1.474e-14
5647.82 1.4675e-14
5650.52 1.4782e-14
5653.22 1.5061e-14
5655.92 1.4681e-14
5658.62 1.4285e-14
5661.32 1.5004e-14
5664.02 1.5103e-14
5666.72 1.5236e-14
5669.42 1.5489e-14
5672.12 1.5065e-14
5674.82 1.519e-14
5677.52 1.4976e-14
5680.22 1.4472e-14
5682.92 1.4456e-14
5685.62 1.4422e-14
5688.32 1.4233e-14
5691.02 1.5693e-14
5693.72 1.5158e-14
5696.42 1.4985e-14
5699.12 1.5498e-14
5701.82 1.4839e-14
5704.52 1.4488e-14
5707.22 1.4546e-14
5709.92 1.4311e-14
5712.62 1.4949e-14
5715.32 1.5295e-14
5718.02 1.5685e-14
5720.72 1.5404e-14
5723.42 1.4912e-14
5726.13 1.5205e-14
5728.83 1.5181e-14
5731.53 1.5639e-14
5734.23 1.5261e-14
5736.93 1.5059e-14
5739.63 1.5322e-14
5742.33 1.5485e-14
5745.03 1.5422e-14
5747.73 1.5631e-14
5750.43 1.4971e-14
5753.13 1.5077e-14
5755.83 1.4898e-14
5758.53 1.499e-14
5761.23 1.4636e-14
5763.93 1.4995e-14
5766.63 1.5671e-14
5769.33 1.5537e-14
5772.03 1.5225e-14
5774.73 1.5383e-14
5777.43 1.4982e-14
5780.13 1.4376e-14
5782.83 1.451e-14
5785.53 1.4981e-14
5788.23 1.4858e-14
5790.93 1.4945e-14
5793.63 1.5524e-14
5796.33 1.5303e-14
5799.03 1.5269e-14
5801.73 1.4942e-14
5804.43 1.5574e-14
5807.13 1.4996e-14
5809.83 1.5181e-14
5812.53 1.5093e-14
5815.23 1.5225e-14
5817.93 1.5651e-14
5820.63 1.5479e-14
5823.33 1.5677e-14
5826.03 1.5663e-14
5828.73 1.493e-14
5831.43 1.5134e-14
5834.13 1.5691e-14
5836.83 1.6095e-14
5839.53 1.623e-14
5842.23 1.5679e-14
5844.93 1.543e-14
5847.63 1.5086e-14
5850.33 1.4681e-14
5853.03 1.5059e-14
5855.73 1.4776e-14
5858.43 1.4458e-14
5861.13 1.505e-14
5863.83 1.4716e-14
5866.53 1.4982e-14
5869.23 1.5634e-14
5871.93 1.5266e-14
5874.63 1.4964e-14
5877.33 1.459e-14
5880.03 1.4243e-14
5882.73 1.3916e-14
5885.43 1.3707e-14
5888.13 1.3584e-14
5890.83 1.3345e-14
5893.53 1.3502e-14
5896.23 1.3801e-14
5898.93 1.4036e-14
5901.63 1.4282e-14
5904.33 1.4539e-14
5907.03 1.4804e-14
5909.73 1.49e-14
5912.43 1.4487e-14
5915.13 1.4743e-14
5917.83 1.504e-14
5920.53 1.5293e-14
5923.23 1.5035e-14
5925.93 1.474e-14
5928.63 1.4973e-14
5931.33 1.4605e-14
5934.03 1.5109e-14
5936.73 1.523e-14
5939.43 1.513e-14
5942.13 1.442e-14
5944.83 1.4794e-14
5947.53 1.5161e-14
5950.23 1.5149e-14
5952.93 1.5037e-14
5955.63 1.4665e-14
5958.33 1.5298e-14
5961.03 1.5578e-14
5963.73 1.5335e-14
5966.43 1.5275e-14
5969.13 1.5524e-14
5971.83 1.5268e-14
5974.53 1.5297e-14
5977.23 1.4562e-14
5979.93 1.4687e-14
5982.63 1.449e-14
5985.33 1.4117e-14
5988.03 1.5207e-14
5990.73 1.4894e-14
5993.43 1.5489e-14
5996.13 1.4753e-14
5998.83 1.4581e-14
6001.53 1.3694e-14
6004.23 1.4761e-14
6006.93 1.4014e-14
6009.63 1.4468e-14
6012.33 1.4386e-14
6015.03 1.4795e-14
6017.73 1.4524e-14
6020.43 1.4436e-14
6023.13 1.4119e-14
6025.83 1.4896e-14
6028.53 1.4783e-14
6031.23 1.3854e-14
6033.93 1.4476e-14
6036.63 1.4844e-14
6039.33 1.4931e-14
6042.03 1.4752e-14
6044.73 1.4997e-14
6047.43 1.4546e-14
6050.13 1.4987e-14
6052.83 1.4765e-14
6055.53 1.5028e-14
6058.23 1.4946e-14
6060.93 1.5056e-14
6063.63 1.4537e-14
6066.33 1.507e-14
6069.03 1.5021e-14
6071.73 1.4871e-14
6074.43 1.5282e-14
6077.13 1.5236e-14
6079.83 1.4337e-14
6082.53 1.3914e-14
6085.23 1.4332e-14
6087.93 1.4644e-14
6090.63 1.4751e-14
6093.33 1.4748e-14
6096.03 1.4634e-14
6098.73 1.4364e-14
6101.43 1.4101e-14
6104.13 1.472e-14
6106.83 1.4986e-14
6109.53 1.4722e-14
6112.23 1.4273e-14
6114.93 1.4377e-14
6117.63 1.4808e-14
6120.33 1.5541e-14
6123.03 1.5454e-14
6125.73 1.4468e-14
6128.43 1.4504e-14
6131.13 1.4797e-14
6133.83 1.4755e-14
6136.53 1.4204e-14
6139.23 1.4266e-14
6141.93 1.5266e-14
6144.63 1.5564e-14
6147.33 1.523e-14
6150.03 1.4657e-14
6152.73 1.4654e-14
6155.43 1.4344e-14
6158.13 1.4685e-14
6160.83 1.3909e-14
6163.53 1.3563e-14
6166.23 1.344e-14
6168.93 1.3964e-14
6171.63 1.3919e-14
6174.33 1.3872e-14
6177.03 1.443e-14
6179.73 1.3933e-14
6182.43 1.4259e-14
6185.13 1.4161e-14
6187.83 1.4543e-14
6190.53 1.4049e-14
6193.23 1.43e-14
6195.93 1.4264e-14
6198.63 1.437e-14
6201.33 1.4371e-14
6204.03 1.463e-14
6206.73 1.4699e-14
6209.43 1.434e-14
6212.13 1.4057e-14
6214.83 1.464e-14
6217.53 1.4048e-14
6220.23 1.334e-14
6222.93 1.363e-14
6225.63 1.35e-14
6228.33 1.3736e-14
6231.03 1.3996e-14
6233.73 1.3874e-14
6236.43 1.3816e-14
6239.13 1.3457e-14
6241.83 1.3717e-14
6244.53 1.3783e-14
6247.23 1.3305e-14
6249.93 1.3253e-14
6252.63 1.3275e-14
6255.33 1.3298e-14
6258.03 1.3314e-14
6260.73 1.3067e-14
6263.43 1.4036e-14
6266.13 1.378e-14
6268.83 1.3638e-14
6271.53 1.3228e-14
6274.23 1.347e-14
6276.93 1.4442e-14
6279.63 1.3282e-14
6282.33 1.3756e-14
6285.03 1.4149e-14
6287.73 1.3722e-14
6290.43 1.3823e-14
6293.13 1.4663e-14
6295.83 1.4482e-14
6298.53 1.5006e-14
6301.23 1.487e-14
6303.93 1.4741e-14
6306.63 1.4144e-14
6309.33 1.4004e-14
6312.03 1.3847e-14
6314.73 1.3431e-14
6317.43 1.3149e-14
6320.13 1.3972e-14
6322.83 1.4285e-14
6325.53 1.3672e-14
6328.23 1.4134e-14
6330.93 1.407e-14
6333.63 1.3993e-14
6336.33 1.3604e-14
6339.03 1.385e-14
6341.73 1.4295e-14
6344.43 1.4985e-14
6347.13 1.4468e-14
6349.83 1.4333e-14
6352.53 1.4208e-14
6355.23 1.4042e-14
6357.93 1.3341e-14
6360.63 1.3799e-14
6363.33 1.3653e-14
6366.03 1.319e-14
6368.73 1.3759e-14
6371.43 1.3974e-14
6374.13 1.3897e-14
6376.83 1.5705e-14
6379.53 1.5245e-14
6382.23 1.3923e-14
6384.93 1.274e-14
6387.63 1.3382e-14
6390.33 1.3965e-14
6393.03 1.4234e-14
6395.73 1.3697e-14
6398.43 1.4142e-14
6401.13 1.3913e-14
6403.83 1.3937e-14
6406.53 1.4093e-14
6409.23 1.4055e-14
6411.93 1.4862e-14
6414.63 1.4575e-14
6417.33 1.3818e-14
6420.03 1.3275e-14
6422.73 1.3461e-14
6425.43 1.46e-14
6428.13 1.401e-14
6430.83 1.4094e-14
6433.53 1.4569e-14
6436.23 1.2864e-14
6438.93 1.3938e-14
6441.63 1.4747e-14
6444.33 1.3916e-14
6447.03 1.2921e-14
6449.73 1.3257e-14
6452.43 1.3246e-14
6455.13 1.4173e-14
6457.83 1.4589e-14
6460.53 1.3923e-14
6463.23 1.2661e-14
6465.93 1.3015e-14
6468.63 1.3685e-14
6471.33 1.4491e-14
6474.03 1.4025e-14
6476.73 1.4113e-14
6479.43 1.3584e-14
6482.13 1.4105e-14
6484.83 1.3094e-14
6487.53 1.2896e-14
6490.23 1.3156e-14
6492.93 1.2657e-14
6495.63 1.2213e-14
6498.33 1.2751e-14
6501.03 1.2928e-14
6503.73 1.4101e-14
6506.43 1.3633e-14
6509.13 1.4051e-14
6511.83 1.4293e-14
6514.53 1.389e-14
6517.23 1.371e-14
6519.93 1.3997e-14
6522.63 1.4186e-14
6525.33 1.3895e-14
6528.03 1.424e-14
6530.73 1.3643e-14
6533.43 1.3698e-14
6536.13 1.3716e-14
6538.83 1.3818e-14
6541.53 1.378e-14
6544.23 1.5005e-14
6546.93 1.4757e-14
6549.63 1.4517e-14
6552.33 1.4371e-14
6555.03 1.4973e-14
6557.73 1.6494e-14
6560.43 1.7719e-14
6563.13 1.7993e-14
6565.83 1.6307e-14
6568.53 1.4651e-14
6571.23 1.4147e-14
6573.93 1.4209e-14
6576.63 1.5302e-14
6579.33 1.734e-14
6582.03 1.876e-14
6584.73 1.8231e-14
6587.43 1.6748e-14
6590.13 1.5424e-14
6592.83 1.4697e-14
6595.53 1.4051e-14
6598.23 1.348e-14
6600.93 1.3334e-14
6603.63 1.3331e-14
6606.33 1.3275e-14
6609.03 1.3358e-14
6611.73 1.3083e-14
6614.43 1.3455e-14
6617.13 1.4e-14
6619.83 1.4012e-14
6622.53 1.3461e-14
6625.23 1.3398e-14
6627.93 1.3366e-14
6630.63 1.3353e-14
6633.33 1.3352e-14
6636.03 1.3378e-14
6638.73 1.3453e-14
6641.43 1.3714e-14
6644.13 1.3619e-14
6646.83 1.3271e-14
6649.53 1.2842e-14
6652.23 1.3359e-14
6654.93 1.3256e-14
6657.63 1.2916e-14
6660.33 1.253e-14
6663.03 1.3733e-14
6665.73 1.2829e-14
6668.43 1.3019e-14
6671.13 1.301e-14
6673.83 1.2537e-14
6676.53 1.3858e-14
6679.23 1.2169e-14
6681.93 1.3228e-14
6684.63 1.3254e-14
6687.33 1.2517e-14
6690.03 1.2862e-14
6692.73 1.2297e-14
6695.43 1.232e-14
6698.13 1.3056e-14
6700.83 1.3763e-14
6703.53 1.3472e-14
6714.83 1.3504e-14
6730.31 1.3471e-14
6745.82 1.3315e-14
6761.38 1.3282e-14
6776.96 1.325e-14
6792.58 1.3156e-14
6808.25 1.3399e-14
6823.94 1.3428e-14
6839.67 1.3426e-14
6855.44 1.3362e-14
6871.24 1.2966e-14
6887.08 1.3175e-14
6902.95 1.3173e-14
6918.87 1.3201e-14
6934.82 1.3048e-14
6950.8 1.335e-14
6966.83 1.3225e-14
6982.89 1.3102e-14
6998.99 1.3252e-14
7015.12 1.3158e-14
7031.29 1.2887e-14
7047.5 1.343e-14
7063.75 1.3122e-14
7080.03 1.312e-14
7096.35 1.2673e-14
7112.71 1.2817e-14
7129.11 1.2639e-14
7145.54 1.2696e-14
7162.01 1.2694e-14
7178.52 1.2518e-14
7195.07 1.1627e-14
7211.66 1.2229e-14
7228.28 1.2656e-14
7244.95 1.2596e-14
7261.65 1.2536e-14
7278.38 1.2679e-14
7295.17 1.2475e-14
7311.98 1.2734e-14
7328.84 1.2968e-14
7345.73 1.3207e-14
7362.67 1.2582e-14
7379.64 1.3142e-14
7396.65 1.2694e-14
7413.7 1.2958e-14
7430.79 1.2661e-14
7447.92 1.2835e-14
7465.09 1.3101e-14
7482.3 1.2949e-14
7499.55 1.2887e-14
7516.84 1.2885e-14
7534.16 1.3092e-14
7551.53 1.3211e-14
7568.94 1.3058e-14
7586.39 1.3056e-14
7603.88 1.2786e-14
7621.41 1.2725e-14
7638.98 1.2548e-14
7656.58 1.2575e-14
7674.23 1.1414e-14
7691.93 1.2341e-14
7709.66 1.1569e-14
7727.43 1.2252e-14
7745.25 1.2449e-14
7763.1 1.2276e-14
7780.99 1.1668e-14
7798.93 1.2103e-14
7816.91 1.2157e-14
7834.93 1.2381e-14
7852.99 1.2379e-14
7871.1 1.2377e-14
7889.24 1.2205e-14
7907.42 1.2146e-14
7925.66 1.1759e-14
7943.92 1.1893e-14
7962.24 1.1973e-14
7980.59 1.211e-14
7998.99 1.2136e-14
8017.43 1.2105e-14
8035.91 1.1746e-14
8054.44 1.1963e-14
8073.0 1.2352e-14
8091.61 1.1986e-14
8110.27 1.215e-14
8128.96 1.2232e-14
8147.7 1.223e-14
8166.49 1.2228e-14
8185.31 1.1865e-14
8204.18 1.1122e-14
8223.09 1.197e-14
8242.05 1.1509e-14
8261.05 1.2245e-14
8280.09 1.2242e-14
8299.18 1.1662e-14
8318.31 1.1795e-14
8337.48 1.1685e-14
8356.71 1.171e-14
8375.97 1.2063e-14
8395.28 1.1465e-14
8414.63 1.1976e-14
8434.03 1.162e-14
8453.47 1.1485e-14
8472.96 1.1483e-14
8492.49 1.1748e-14
8512.07 1.114e-14
8531.69 1.1689e-14
8551.36 7.6157e-15
8571.07 1.1631e-14
8590.83 1.1522e-14
8610.64 1.1155e-14
8630.48 1.1439e-14
8650.38 1.1569e-14
8670.32 7.8742e-15
8690.31 1.1018e-14
8710.34 1.1273e-14
8730.42 1.164e-14
8750.55 1.1037e-14
8770.72 1.137e-14
8790.93 1.158e-14
8811.2 1.1471e-14
8831.51 1.1311e-14
8851.87 1.1388e-14
8872.28 9.939e-15
8892.73 1.0971e-14
8913.23 1.1225e-14
8933.78 1.1222e-14
8954.37 1.0914e-14
8975.01 1.0517e-14
8995.7 1.0205e-14
9016.44 1.0321e-14
9037.23 1.0584e-14
9058.06 1.1791e-14
9078.94 1.0727e-14
9099.87 1.0749e-14
9120.84 1.1489e-14
9141.87 1.0794e-14
9162.95 1.0025e-14
9184.07 9.7501e-15
9205.24 1.0713e-14
9226.46 1.0371e-14
9247.73 1.0417e-14
9269.05 1.0756e-14
9290.42 1.0606e-14
9311.83 1.1078e-14
9333.3 1.1076e-14
9354.82 1.1048e-14
9376.38 1.0944e-14
9397.99 1.1018e-14
9419.66 1.0839e-14
9441.37 1.0912e-14
9463.14 1.1011e-14
9484.95 1.0958e-14
9506.82 1.078e-14
9528.73 1.063e-14
9550.7 1.0079e-14
9572.72 1.0601e-14
9594.78 1.082e-14
9616.9 1.0744e-14
9639.07 1.0766e-14
9661.29 1.0665e-14
9683.56 1.0712e-14
9705.88 1.0611e-14
9728.26 1.0536e-14
9750.68 1.0485e-14
9773.16 1.0507e-14
9795.69 1.0408e-14
9818.27 1.0502e-14
9840.91 1.0452e-14
9863.59 1.0377e-14
9886.33 1.0351e-14
9909.13 1.0301e-14
9931.97 1.0323e-14
9954.86 1.032e-14
9977.81 1.0294e-14
10000.81 1.0245e-14
10023.86 1.0032e-14
10070.14 9.8445e-15
10116.61 1.0069e-14
10163.31 9.9952e-15
10233.76 9.9652e-15
10280.99 9.9376e-15
10304.69 9.8896e-15
10496.27 9.5576e-15
10691.42 9.1687e-15
10890.18 8.7158e-15
11092.64 8.5371e-15
11298.87 8.2853e-15
11508.93 8.1905e-15
11695.95 7.9489e-15
11913.39 7.6968e-15
12106.96 7.5216e-15
12303.68 7.3673e-15
12503.6 7.183e-15
12706.77 7.0034e-15
12913.24 6.844e-15
13092.88 6.7191e-15
13305.62 6.536e-15
13490.72 6.4167e-15
13709.93 6.2995e-15
13900.65 6.1279e-15
14094.03 5.9335e-15
14290.1 5.8386e-15
14488.9 5.8386e-15
14690.46 5.6795e-15
14894.82 5.7057e-15
15102.02 5.6926e-15
15312.11 5.732e-15
15489.42 5.7057e-15
15704.9 5.5887e-15
15886.76 5.4239e-15
16107.77 5.4489e-15
16294.27 5.4364e-15
16482.95 5.3249e-15
16712.25 5.2882e-15
16905.78 5.1798e-15
17101.54 5.0852e-15
17299.55 4.8788e-15
17499.88 4.7787e-15
17702.52 4.6165e-15
17907.51 4.47e-15
18114.86 4.2787e-15
18282.48 4.2006e-15
18494.19 4.0861e-15
18708.34 3.9202e-15
18881.44 3.8398e-15
19100.08 3.7697e-15
19321.25 3.6501e-15
19500.02 3.51e-15
19680.46 3.4301e-15
19908.35 3.3443e-15
20092.55 3.2909e-15
20278.47 3.1865e-15
20513.29 3.15e-15
20703.08 3.0712e-15
20894.66 3.0082e-15
21087.98 2.9533e-15
21283.11 2.8927e-15
21480.05 2.8334e-15
21678.79 2.7435e-15
21879.39 2.7059e-15
22081.85 2.6382e-15
22286.15 2.5722e-15
22492.37 2.5195e-15
22700.48 2.4572e-15
22910.53 2.2371e-15
23122.53 2.2229e-15
23282.8 1.982e-15
23498.24 1.8809e-15
23715.65 1.9037e-15
23880.05 1.7693e-15
24101.0 1.7181e-15
24324.01 1.7033e-15
24492.6 1.5977e-15
24719.24 1.5767e-15
24890.58 1.3802e-15
25002.33 1.4287e-15
25097.37 1.4011e-15
25192.32 1.4012e-15
25287.36 1.3617e-15
25382.3 1.3493e-15
25477.34 1.3566e-15
25572.38 1.3238e-15
25667.32 1.4083e-15
25762.36 1.4304e-15
25857.41 1.3648e-15
25952.35 1.404e-15
26047.39 1.3846e-15
26142.33 1.385e-15
26237.37 1.2977e-15
26332.41 1.3071e-15
26427.36 1.3223e-15
26522.4 1.2653e-15
26617.44 1.2905e-15
26712.38 1.2298e-15
26807.42 1.1862e-15
26902.36 1.1842e-15
26997.41 1.1666e-15
27092.45 1.1635e-15
27187.39 1.1862e-15
27282.43 1.1223e-15
27377.47 1.1108e-15
27472.41 1.0871e-15
27567.45 1.0062e-15
27662.4 1.004e-15
27757.44 9.9294e-16
27852.48 1.0406e-15
27947.42 9.5842e-16
28042.46 8.2298e-16
28137.5 8.6383e-16
28232.45 9.1831e-16
28327.49 9.055e-16
28422.43 8.6577e-16
28517.47 8.5638e-16
28612.51 7.4035e-16
28707.45 7.5586e-16
28802.49 8.014e-16
28897.53 7.5485e-16
28992.48 8.0959e-16
29087.52 7.617e-16
29182.46 7.1262e-16
29277.5 7.8268e-16
29372.54 6.4507e-16
29467.49 6.5826e-16
29562.53 6.9391e-16
29657.57 7.1276e-16
29752.51 6.9959e-16
29847.55 7.0827e-16
29942.49 6.9918e-16
30037.54 7.0129e-16
30132.58 6.8054e-16
30227.52 7.1139e-16
30322.56 6.8979e-16
30417.6 6.5161e-16
30512.54 6.0811e-16
30607.58 5.8746e-16
30702.53 6.2144e-16
30797.57 6.1353e-16
30892.61 6.1341e-16
30987.55 6.2216e-16
31082.59 5.6606e-16
31177.63 5.2365e-16
31272.57 5.2183e-16
31367.62 5.4208e-16
31462.56 5.5829e-16
31557.6 6.1985e-16
31652.64 6.4272e-16
31747.59 6.9555e-16
31842.62 6.9038e-16
31937.67 6.7179e-16
32032.61 7.0892e-16
32127.65 7.3984e-16
32222.59 7.2492e-16
32317.63 8.6394e-16
32412.68 9.095e-16
32507.62 1.0239e-15
32602.66 1.1533e-15
32697.7 1.1472e-15
32792.64 1.0228e-15
32887.68 9.5495e-16
32982.62 8.5018e-16
33077.66 7.9697e-16
33172.71 7.9046e-16
33267.65 7.5513e-16
33362.69 7.0751e-16
33457.73 7.1912e-16
33552.67 6.7509e-16
33647.71 6.3127e-16
33742.66 6.5105e-16
33837.7 6.4405e-16
33932.74 6.2767e-16
34027.68 6.3072e-16
34122.72 6.4709e-16
34217.76 6.1919e-16
34312.71 6.3776e-16
34407.75 6.5218e-16
34502.69 6.4249e-16
34597.73 6.3811e-16
34692.77 6.2709e-16
34787.72 6.4954e-16
34882.75 6.4819e-16
34977.8 6.7517e-16
35072.74 5.8525e-16
35167.78 6.0299e-16
35262.72 6.2575e-16
35357.76 6.1654e-16
35452.8 6.2458e-16
35547.75 6.1517e-16
35642.79 6.311e-16
35737.83 6.6683e-16
35832.77 6.168e-16
35927.81 6.0596e-16
36022.75 6.1945e-16
36117.8 6.064e-16
36212.83 5.7541e-16
36307.78 5.9714e-16
36402.82 5.7987e-16
36497.86 6.2223e-16
36592.81 5.5619e-16
36687.85 5.517e-16
36782.79 5.8318e-16
36877.83 5.6018e-16
36972.87 5.6643e-16
37067.81 5.5437e-16
37162.85 5.6998e-16
37257.89 5.9251e-16
37352.84 5.729e-16
37447.88 5.66e-16
37542.82 5.6391e-16
37637.86 5.8098e-16
37732.9 5.6705e-16
37827.84 5.7494e-16
37922.89 5.3193e-16
38017.92 5.3063e-16
38112.87 5.2312e-16
38207.91 5.0029e-16
38302.85 5.293e-16
38397.89 5.076e-16
38492.94 4.8612e-16
38587.88 5.0028e-16
38682.92 5.1511e-16
38777.96 5.4834e-16
38872.9 5.0495e-16
38967.94 4.9998e-16
39062.88 5.1404e-16
39157.93 5.2055e-16
39252.97 5.3839e-16
39347.91 5.1893e-16
39442.95 4.8668e-16
39537.99 5.1026e-16
39632.93 5.0821e-16
39727.98 5.4126e-16
39822.92 5.0574e-16
39917.96 5.3164e-16
40013.0 5.4814e-16
40107.94 6.0197e-16
40202.98 6.1914e-16
40298.03 6.1192e-16
40392.96 5.7514e-16
40488.01 5.0567e-16
40582.95 4.8942e-16
40677.99 4.9616e-16
40773.03 4.6693e-16
40867.97 4.1142e-16
40963.01 4.4958e-16
41058.06 4.5812e-16
41153.0 4.5702e-16
41248.04 4.7071e-16
41342.99 4.9185e-16
41438.02 4.7326e-16
41533.06 4.5959e-16
41628.01 4.8227e-16
41723.05 4.6885e-16
41818.09 4.7732e-16
41913.03 4.1905e-16
42008.07 4.1212e-16
42103.02 4.0336e-16
42198.06 4.2248e-16
42293.1 3.7754e-16
42388.04 3.594e-16
42483.08 3.3279e-16
42578.12 3.4758e-16
42673.07 3.1486e-16
42768.1 3.8052e-16
42863.05 3.9901e-16
42958.09 4.3126e-16
43053.13 3.8678e-16
43148.07 3.9826e-16
43243.11 3.8047e-16
43338.15 4.1727e-16
43433.1 3.9646e-16
43528.14 3.4004e-16
43623.08 4.0213e-16
43718.12 4.3031e-16
43813.16 4.1088e-16
43908.11 3.6525e-16
44003.15 3.9654e-16
44098.19 4.0875e-16
44193.13 3.3126e-16
44288.17 3.6303e-16
44383.11 3.2433e-16
44478.15 3.1548e-16
44573.2 3.6209e-16
44668.14 3.3003e-16
44763.18 3.2768e-16
44858.22 2.9323e-16
44953.16 2.864e-16
45048.2 3.0253e-16
45143.14 2.785e-16
45238.19 2.9666e-16
45333.23 2.6512e-16
45428.17 2.7072e-16
45523.21 2.7521e-16
45618.25 1.8844e-16
45713.2 2.5318e-16
45808.23 2.0306e-16
45903.18 2.563e-16
45998.22 2.7513e-16
46093.26 2.321e-16
46188.2 2.5228e-16
46283.25 2.9314e-16
46378.28 2.8127e-16
46473.23 3.2873e-16
46568.27 3.3674e-16
46663.21 2.994e-16
46758.25 2.8677e-16
46853.29 3.3998e-16
46948.24 3.2505e-16
47043.28 3.0895e-16
47138.32 3.0677e-16
47233.26 3.0148e-16
47328.3 3.2449e-16
47423.24 3.2221e-16
47518.28 3.0273e-16
47613.33 3.0328e-16
47708.27 2.6669e-16
47803.31 3.0845e-16
47898.35 3.1707e-16
47993.29 3.2919e-16
48088.33 3.4012e-16
48183.27 3.2916e-16
48278.32 2.843e-16
48373.36 3.1569e-16
48468.3 2.8494e-16
48564.32 2.5891e-16
49049.97 2.8914e-16
49540.47 3.1967e-16
50035.87 3.5051e-16
50536.23 3.8166e-16
51041.59 4.1312e-16
51552.01 4.4489e-16
52067.53 4.7699e-16
52388.08 4.9694e-16
52692.3 5.0207e-16
52996.53 4.1391e-16
53300.75 4.5996e-16
53604.97 3.6955e-16
53909.19 3.0926e-16
54213.42 3.2456e-16
54517.63 3.371e-16
54821.86 3.8966e-16
55126.08 3.6621e-16
55430.31 3.4389e-16
55734.53 2.9027e-16
56038.76 4.0423e-16
56342.98 4.92e-16
56647.2 5.7902e-16
56951.41 5.3819e-16
57255.65 4.8048e-16
57559.87 4.4145e-16
57864.09 4.0646e-16
58168.32 4.1321e-16
58472.54 3.8303e-16
58776.76 3.949e-16
59080.98 3.9662e-16
59385.21 3.5775e-16
59689.43 4.3966e-16
59993.65 5.1408e-16
60297.88 5.2133e-16
60602.1 5.4243e-16
60906.31 5.9442e-16
61210.54 7.7767e-16
61514.76 9.6439e-16
61818.98 1.2553e-15
62123.21 1.5177e-15
62427.43 1.399e-15
62731.66 1.1763e-15
63035.88 9.7178e-16
63340.1 8.7301e-16
63644.33 5.9896e-16
63948.54 6.7967e-16
64252.77 6.0233e-16
64557.0 5.532e-16
64861.21 5.0283e-16
65165.43 5.1691e-16
65469.67 4.847e-16
65773.88 4.698e-16
66078.1 5.5266e-16
66382.33 5.1067e-16
66686.55 5.1248e-16
66990.78 5.4378e-16
67295.0 5.5251e-16
67599.22 5.1611e-16
67903.45 5.3961e-16
68207.66 5.0927e-16
68511.89 5.4463e-16
68816.11 5.5723e-16
69120.33 6.2504e-16
69424.56 6.7435e-16
69728.78 8.5808e-16
70033.0 8.2902e-16
70337.23 7.4192e-16
70641.44 7.1661e-16
70945.68 6.6231e-16
71249.89 7.3768e-16
71554.11 7.1017e-16
71858.35 7.621e-16
72162.56 7.2318e-16
72466.78 8.1848e-16
72771.01 8.0365e-16
73075.23 8.4413e-16
73379.45 9.6926e-16
73683.67 1.0398e-15
73967.99 1.0432e-15
73987.9 1.1673e-15
74292.13 1.2176e-15
74577.63 1.2762e-15
74596.34 1.3283e-15
75187.3 1.4521e-15
75796.95 1.6352e-15
76406.61 1.6345e-15
77016.26 1.617e-15
77625.93 1.6068e-15
78235.59 1.5142e-15
78845.24 1.4216e-15
79454.91 1.2423e-15
80064.56 1.1032e-15
80674.22 9.6635e-16
81283.88 8.7937e-16
81893.53 8.9073e-16
82503.2 7.9936e-16
83112.85 7.9975e-16
83722.51 7.7676e-16
84332.17 7.9391e-16
84941.84 8.0054e-16
85551.48 8.1255e-16
86161.14 7.6403e-16
86770.8 6.6629e-16
87380.46 5.4806e-16
87990.11 4.523e-16
88599.77 3.6613e-16
89209.42 3.2016e-16
89819.09 2.817e-16
90428.75 2.4216e-16
91038.41 1.9756e-16
91648.07 1.8687e-16
92257.72 1.8806e-16
92867.38 1.6435e-16
93477.03 1.5295e-16
94086.7 1.6017e-16
94696.35 1.5678e-16
95306.0 1.5041e-16
95915.67 1.6173e-16
96525.33 1.7941e-16
97134.99 1.4449e-16
97744.65 1.3114e-16
98354.26 1.2961e-16
98963.97 1.2145e-16
99573.59 1.2125e-16
100183.31 1.2832e-16
100792.92 1.2856e-16
101402.63 1.2371e-16
102012.26 1.3033e-16
102621.88 1.3797e-16
103231.58 1.432e-16
103841.2 1.379e-16
104450.92 1.5124e-16
105060.54 1.6726e-16
105670.15 1.7031e-16
106279.87 1.7322e-16
106889.49 1.7069e-16
107499.2 1.8293e-16
108108.81 1.8716e-16
108718.53 1.9757e-16
109328.15 2.1891e-16
109937.76 2.5055e-16
110547.48 2.8295e-16
111157.09 3.7056e-16
111766.81 5.7945e-16
112376.42 7.0995e-16
112986.14 6.6492e-16
113595.75 5.6205e-16
114205.37 4.8044e-16
114815.09 4.2648e-16
115424.71 3.902e-16
116034.41 3.7033e-16
116644.03 3.4269e-16
117253.75 3.4835e-16
117863.37 3.569e-16
118472.98 3.7928e-16
119082.7 3.824e-16
119692.32 4.2347e-16
120302.03 4.2611e-16
120911.64 4.1627e-16
121521.27 4.2611e-16
122130.98 4.4226e-16
122740.59 4.7901e-16
123350.31 4.8932e-16
123959.93 4.9957e-16
124569.64 5.1691e-16
125179.26 5.471e-16
125788.88 5.8082e-16
126398.59 6.0548e-16
127008.21 6.5223e-16
127617.92 8.8047e-16
128227.53 9.5415e-16
128837.15 6.4693e-16
129446.86 4.53e-16
130056.49 4.4817e-16
130666.2 4.4512e-16
131275.81 4.3518e-16
131885.52 4.3211e-16
132495.15 4.2393e-16
133104.77 4.2269e-16
133714.48 4.2005e-16
134324.09 4.2421e-16
134933.81 4.419e-16
135543.43 4.3724e-16
136153.14 4.26e-16
136762.75 4.2177e-16
137372.37 4.1527e-16
137982.09 4.1083e-16
138591.71 4.176e-16
139201.41 4.0755e-16
139811.03 4.1332e-16
140420.75 4.0353e-16
141030.37 4.1398e-16
141639.98 3.8399e-16
142249.71 3.8087e-16
142774.3 4.0747e-16
143674.53 4.0629e-16
144574.86 3.6973e-16
145475.1 3.7935e-16
146375.33 3.5912e-16
147275.58 3.643e-16
148175.91 3.7291e-16
149076.16 3.5565e-16
149976.38 3.5459e-16
150876.72 3.8603e-16
151776.96 2.9769e-16
152677.19 3.1987e-16
153577.44 3.2004e-16
154477.77 3.367e-16
155378.01 4.0259e-16
156278.24 3.8175e-16
157178.58 3.3679e-16
158078.82 3.1679e-16
158979.05 3.1903e-16
159879.39 3.201e-16
160779.63 3.1114e-16
161679.86 3.0948e-16
162580.1 3.033e-16
163480.45 3.7653e-16
164380.67 3.76e-16
165280.91 3.722e-16
166181.15 3.8073e-16
167081.49 3.4105e-16
167981.73 3.4908e-16
168881.98 3.8881e-16
169782.31 4.1156e-16
170682.54 4.2139e-16
171582.78 3.6309e-16
172483.12 3.5412e-16
173383.35 3.5055e-16
174283.59 3.4963e-16
175183.82 3.214e-16
176084.16 3.168e-16
176984.4 3.0704e-16
177884.63 3.1265e-16
178784.96 2.9658e-16
179685.21 3.0481e-16
180585.43 3.0796e-16
181485.77 3.0333e-16
182386.01 3.5439e-16
183286.26 3.0354e-16
184186.49 2.9934e-16
185086.82 3.0948e-16
185987.07 3.2754e-16
186887.29 3.4832e-16
187787.64 3.6655e-16
188687.89 3.2607e-16
189588.1 3.3586e-16
190488.34 3.4646e-16
191388.7 3.5136e-16
192288.92 3.4762e-16
193189.17 3.5222e-16
194089.5 3.6687e-16
194989.73 3.4899e-16
195889.98 3.7964e-16
196790.22 3.7837e-16
197690.55 3.8624e-16
198590.78 4.0297e-16
199491.03 4.02e-16
200391.36 4.6813e-16
201816.98 4.1975e-16
203540.07 4.8594e-16
205264.16 4.8443e-16
206989.24 4.5933e-16
208715.19 5.029e-16
210442.02 5.1793e-16
212169.84 4.875e-16
213898.56 5.3238e-16
215628.23 5.7152e-16
217358.9 5.5692e-16
219090.45 5.6236e-16
220822.99 5.8514e-16
222556.41 6.2183e-16
224290.79 5.9543e-16
226026.17 5.8119e-16
227762.44 6.149e-16
229499.69 6.4989e-16
231237.92 6.594e-16
232977.03 6.3617e-16
234717.23 6.5999e-16
236458.21 7.284e-16
238200.25 7.4122e-16
239943.3 7.1519e-16
241687.22 7.3825e-16
243432.11 7.8913e-16
245178.0 8.1424e-16
246924.76 8.4376e-16
248672.62 8.7057e-16
250421.36 8.6959e-16
252171.17 8.9408e-16
253921.85 1.0788e-15
255673.55 9.4573e-16
257426.2 9.9546e-16
259179.84 9.8686e-16
260934.46 9.8376e-16
262690.09 1.0085e-15
264446.67 1.0229e-15
266204.23 1.0844e-15
267962.78 1.0696e-15
269722.3 1.0654e-15
271482.93 1.0676e-15
273244.43 1.1017e-15
275006.9 1.1445e-15
276770.44 1.174e-15
278535.0 1.1782e-15
280300.42 1.1878e-15
282066.91 1.1912e-15
283834.42 1.2245e-15
285602.99 1.2478e-15
287372.52 1.2979e-15
289142.97 1.5727e-15
290914.56 1.3118e-15
292687.06 1.3332e-15
294460.61 1.3488e-15
296235.17 1.3374e-15
298010.71 1.4128e-15
299787.33 1.405e-15
301564.93 1.4355e-15
303343.51 1.423e-15
305123.16 1.4562e-15
306903.92 1.429e-15
308685.63 1.4284e-15
310468.35 1.4719e-15
312252.03 1.5307e-15
314036.9 1.5217e-15
315822.66 1.5144e-15
317609.55 1.5863e-15
319397.37 1.5722e-15
321186.35 1.5793e-15
322976.34 1.5453e-15
324767.26 1.5228e-15
326559.31 1.5697e-15
328352.43 1.5601e-15
330146.6 1.7186e-15
331941.81 1.6381e-15
333738.03 1.7765e-15
335535.27 1.7137e-15
337333.6 1.5942e-15
339133.11 1.6824e-15
340933.47 1.7442e-15
342735.04 1.8302e-15
