# col1 col2
# An Atlas of Galaxy Spectral Energy Distributions from the Ultraviolet to the Mid-Infrared
# Brown et al. (2014)
# http://dx.doi.org/10.5072/03/529D3551F0117
# 
# Column 1 : Restframe Wavelength (Angstrom)
# Column 2 : Flux per unit wavelength (ergs/s/cm^2/Angstrom)
# Column 3 : Observed wavelength (Angstrom)
# Column 4 : Source (0 = model, 1 = Optical Spectrum, 2 = Akari, 3 = Spitzer IRS)
# 
100.02 2.3226e-22
102.12 2.9784e-22
104.01 3.4832e-22
105.95 4.2362e-22
107.92 5.2117e-22
109.92 8.1093e-22
114.05 1.1376e-21
118.06 1.5031e-21
121.09 4.4155e-21
125.05 5.8746e-21
127.08 6.714e-21
127.97 7.2108e-21
130.95 8.6294e-21
131.85 9.8397e-21
134.0 1.1015e-20
137.12 1.4028e-20
139.99 1.6595e-20
142.92 2.8641e-20
146.92 4.8751e-20
151.04 5.929e-20
154.91 7.2108e-20
158.89 8.7093e-20
161.84 9.9996e-20
165.99 1.1967e-19
169.86 1.4157e-19
173.02 1.5995e-19
177.05 1.8706e-19
179.93 2.094e-19
182.01 2.2645e-19
185.82 2.612e-19
191.03 3.0973e-19
194.13 3.4354e-19
198.2 3.9082e-19
201.88 4.4359e-19
205.16 4.8527e-19
209.94 5.4573e-19
215.82 6.6371e-19
219.83 7.4128e-19
222.89 7.9612e-19
227.04 8.8508e-19
230.19 1.374e-18
233.93 2.4154e-18
239.93 3.2358e-18
246.09 3.3805e-18
251.82 3.793e-18
257.09 3.365e-18
260.07 4.0549e-18
264.3 4.4155e-18
269.21 4.6557e-18
274.22 4.8863e-18
279.31 5.1166e-18
283.85 5.3577e-18
289.8 5.4198e-18
295.86 5.8074e-18
300.67 5.8611e-18
307.68 6.2803e-18
317.76 6.9021e-18
328.17 7.3448e-18
338.14 7.7265e-18
347.61 8.1093e-18
357.35 8.4719e-18
365.67 8.8712e-18
375.05 9.1829e-18
384.67 9.2253e-18
395.45 9.7945e-18
404.66 1.0162e-17
414.09 1.0399e-17
421.79 1.0543e-17
429.63 1.0666e-17
440.65 1.099e-17
450.91 1.1142e-17
460.36 1.1246e-17
470.0 1.1402e-17
479.84 1.1614e-17
489.88 1.1614e-17
500.14 1.1857e-17
505.93 1.2133e-17
511.79 1.4125e-17
520.11 1.4223e-17
529.78 1.4321e-17
539.63 1.4092e-17
549.66 1.4996e-17
559.88 1.5995e-17
570.29 1.671e-17
579.55 1.6519e-17
590.33 1.7538e-17
599.92 1.7498e-17
609.67 1.7741e-17
619.57 1.9906e-17
629.64 2.0464e-17
639.87 2.094e-17
650.27 2.2028e-17
657.8 2.249e-17
665.42 2.3495e-17
674.67 2.4043e-17
685.64 2.3767e-17
695.17 2.7101e-17
704.84 2.6181e-17
716.3 2.9853e-17
726.26 3.076e-17
734.67 3.1767e-17
744.89 3.4039e-17
755.25 3.5562e-17
765.76 3.6474e-17
774.63 3.9535e-17
785.4 4.1781e-17
794.5 4.3549e-17
805.55 4.5392e-17
814.88 4.6987e-17
824.32 5.0464e-17
835.78 4.5288e-17
845.46 5.3701e-17
855.25 5.5716e-17
865.15 5.9427e-17
875.17 6.3093e-17
885.31 6.7295e-17
895.56 7.0792e-17
905.93 7.2274e-17
914.31 1.028e-16
924.9 5.8611e-16
935.61 1.2734e-15
944.26 2.4773e-15
955.2 3.4354e-15
964.04 4.1589e-15
975.2 8.9121e-16
984.22 4.2362e-15
995.62 4.2362e-15
1004.83 5.4825e-15
1014.13 5.0232e-15
1025.87 2.0511e-15
1035.36 3.8458e-15
1044.94 6.7761e-15
1054.61 6.7605e-15
1064.37 5.7542e-15
1074.22 6.6219e-15
1084.16 5.6102e-15
1094.19 6.8862e-15
1104.32 6.6678e-15
1114.53 6.5763e-15
1124.85 6.0671e-15
1135.25 7.1776e-15
1145.76 6.6371e-15
1153.7 6.934e-15
1164.38 7.1942e-15
1175.15 5.4573e-15
1186.02 6.934e-15
1194.24 5.2117e-15
1205.29 4.0085e-15
1213.65 2.1927e-15
1224.88 4.6879e-15
1236.21 6.7761e-15
1244.78 7.4814e-15
1256.3 7.3618e-15
1265.01 6.5612e-15
1273.78 7.9796e-15
1285.56 8.2791e-15
1294.47 7.1118e-15
1306.45 7.0466e-15
1315.51 8.26e-15
1324.63 7.998e-15
1333.81 7.3957e-15
1346.15 8.2981e-15
1355.48 8.128e-15
1364.88 7.5332e-15
1374.34 7.798e-15
1383.86 7.9064e-15
1393.46 7.0792e-15
1406.35 7.3279e-15
1416.1 7.5506e-15
1425.91 7.6205e-15
1435.8 7.6205e-15
1442.43 7.9247e-15
1445.75 7.998e-15
1455.77 7.8701e-15
1465.86 7.447e-15
1476.02 7.4128e-15
1486.26 7.4814e-15
1496.56 7.568e-15
1503.46 7.2943e-15
1510.4 6.7295e-15
1517.38 7.0629e-15
1524.38 6.918e-15
1534.95 6.2515e-15
1545.59 6.6371e-15
1556.3 6.3384e-15
1563.48 6.4711e-15
1574.32 6.8231e-15
1585.23 7.0304e-15
1596.22 7.1942e-15
1603.59 6.9981e-15
1614.71 6.9981e-15
1625.9 6.745e-15
1633.4 7.0466e-15
1644.72 7.1118e-15
1656.13 6.6986e-15
1663.77 7.1942e-15
1671.45 6.6371e-15
1675.3 7.2274e-15
1686.92 7.4128e-15
1694.7 7.0792e-15
1706.45 6.8704e-15
1714.33 6.6524e-15
1726.21 6.6066e-15
1734.18 6.934e-15
1746.2 6.7917e-15
1754.26 7.1282e-15
1766.42 6.6371e-15
1774.57 6.8231e-15
1786.87 6.9021e-15
1795.12 7.2108e-15
1803.4 7.1776e-15
1815.91 6.8074e-15
1824.29 6.8862e-15
1836.93 6.714e-15
1845.41 6.2659e-15
1853.93 6.3093e-15
1866.78 6.4711e-15
1875.4 6.8074e-15
1884.05 6.4118e-15
1897.11 6.2084e-15
1905.87 6.4861e-15
1914.67 6.3238e-15
1923.5 6.2084e-15
1936.84 6.2803e-15
1945.78 6.6066e-15
1954.76 6.2803e-15
1968.31 6.6986e-15
1977.39 6.8388e-15
1981.95 6.5612e-15
1995.69 6.4118e-15
2004.9 6.516e-15
2014.16 6.3971e-15
2023.45 6.5461e-15
2032.79 6.3677e-15
2046.88 6.531e-15
2056.33 6.2371e-15
2065.82 6.3093e-15
2075.36 6.6986e-15
2080.14 6.5763e-15
2084.94 6.745e-15
2094.56 6.4563e-15
2104.23 6.501e-15
2113.94 6.5612e-15
2123.7 6.6066e-15
2133.5 6.2659e-15
2143.35 6.4266e-15
2153.24 6.5763e-15
2163.18 6.3677e-15
2173.17 6.3384e-15
2183.2 6.353e-15
2193.28 6.5763e-15
2203.4 6.4118e-15
2213.57 6.1232e-15
2223.79 6.0392e-15
2234.05 6.4266e-15
2244.36 6.1941e-15
2254.72 5.9564e-15
2265.13 5.9977e-15
2275.59 6.1515e-15
2286.09 6.3384e-15
2296.64 6.0166e-15
2307.24 6.1227e-15
2312.56 5.9325e-15
2323.24 5.0446e-15
2333.96 5.5773e-15
2344.73 5.3213e-15
2355.56 5.8158e-15
2366.43 5.3483e-15
2377.35 5.5566e-15
2382.83 5.1064e-15
2393.83 5.3916e-15
2404.88 5.2641e-15
2415.98 5.3695e-15
2427.13 5.7748e-15
2432.73 5.5956e-15
2443.96 5.8811e-15
2455.24 5.8489e-15
2466.57 5.7768e-15
2472.26 5.5718e-15
2483.67 5.5414e-15
2495.13 5.2995e-15
2506.65 5.941e-15
2512.43 5.2381e-15
2518.22 5.2419e-15
2524.02 5.1262e-15
2535.67 5.2775e-15
2547.38 5.273e-15
2553.25 5.7197e-15
2565.04 5.5208e-15
2576.88 5.8296e-15
2582.82 5.7539e-15
2594.74 5.6571e-15
2606.71 5.4606e-15
2612.72 5.3649e-15
2624.78 5.665e-15
2636.9 6.0513e-15
2642.98 6.6553e-15
2655.18 7.0278e-15
2667.43 6.2874e-15
2673.58 6.5583e-15
2685.92 6.7057e-15
2692.11 6.2055e-15
2704.54 6.4928e-15
2717.02 6.0268e-15
2723.29 5.9077e-15
2735.86 6.2529e-15
2742.16 5.3754e-15
2754.82 5.6374e-15
2767.54 5.9806e-15
2773.92 6.2241e-15
2786.72 5.6461e-15
2793.14 4.5403e-15
2806.04 4.8278e-15
2812.5 6.1248e-15
2825.49 6.6339e-15
2832.0 6.4284e-15
2845.07 6.0923e-15
2858.2 5.5778e-15
2864.79 6.5434e-15
2878.02 6.8154e-15
2884.65 6.7117e-15
2897.97 6.8789e-15
2911.34 7.6596e-15
2931.52 7.3155e-15
2951.84 7.1497e-15
2972.3 7.3002e-15
2992.91 7.3517e-15
3006.72 7.4317e-15
3027.56 7.5188e-15
3048.55 7.6598e-15
3069.68 7.7855e-15
3090.96 7.7868e-15
3112.38 8.0248e-15
3126.75 7.8191e-15
3148.42 7.8387e-15
3170.25 8.0786e-15
3192.22 7.6108e-15
3206.96 7.983e-15
3229.19 7.5036e-15
3251.57 8.4407e-15
3266.58 8.9975e-15
3289.22 8.9379e-15
3312.02 8.8178e-15
3319.66 8.5849e-15
3327.31 8.7118e-15
3334.98 9.3215e-15
3342.67 8.6869e-15
3350.37 9.1251e-15
3358.1 9.1752e-15
3365.84 7.7445e-15
3373.6 7.7513e-15
3381.37 8.6647e-15
3389.17 9.081e-15
3396.98 8.5215e-15
3404.81 9.3518e-15
3412.66 8.6552e-15
3420.53 8.9879e-15
3428.41 9.121e-15
3436.32 9.108e-15
3444.24 7.7769e-15
3452.18 9.5103e-15
3460.14 8.8425e-15
3468.11 8.9323e-15
3476.11 8.6966e-15
3484.12 9.0727e-15
3492.15 8.8333e-15
3500.2 8.4627e-15
3508.27 9.2661e-15
3516.36 8.517e-15
3524.47 8.947e-15
3532.59 9.442e-15
3540.73 9.7153e-15
3548.9 1.0112e-14
3557.08 9.5332e-15
3565.28 9.9456e-15
3573.5 8.2989e-15
3581.73 8.6779e-15
3589.99 7.4612e-15
3598.27 9.445e-15
3606.56 9.0281e-15
3614.87 8.8919e-15
3619.08 9.7711e-15
3621.81 6.2863e-15
3624.55 9.249e-15
3627.29 8.7971e-15
3630.03 1.0764e-14
3632.77 1.1723e-14
3635.5 1.0555e-14
3638.24 1.0382e-14
3640.98 1.051e-14
3643.72 7.2657e-15
3646.46 1.0481e-14
3649.19 8.5442e-15
3651.93 7.4849e-15
3654.67 8.2051e-15
3657.41 9.6452e-15
3660.15 9.222e-15
3662.88 8.7768e-15
3665.62 9.9254e-15
3668.36 9.1061e-15
3671.1 8.652e-15
3673.84 1.0125e-14
3676.57 1.1672e-14
3679.31 9.5535e-15
3682.05 9.7542e-15
3684.79 1.1497e-14
3687.52 1.0545e-14
3690.26 9.4524e-15
3693.0 7.3559e-15
3695.74 8.697e-15
3698.48 1.094e-14
3701.21 9.2766e-15
3703.95 8.7313e-15
3706.69 8.3605e-15
3709.43 7.9455e-15
3712.17 1.0405e-14
3714.9 8.5032e-15
3717.64 9.646e-15
3720.38 1.0225e-14
3723.12 1.481e-14
3725.86 2.0394e-14
3728.59 2.4856e-14
3731.33 2.3047e-14
3734.07 1.4937e-14
3736.81 9.9699e-15
3739.55 1.0452e-14
3742.28 1.0245e-14
3745.02 7.4791e-15
3747.76 8.9689e-15
3750.5 9.799e-15
3753.24 8.9356e-15
3755.97 9.9182e-15
3758.71 1.0354e-14
3761.45 1.0572e-14
3764.19 9.7613e-15
3766.93 9.1316e-15
3769.66 8.2277e-15
3772.4 1.005e-14
3775.14 1.1544e-14
3777.88 1.1828e-14
3780.62 1.0939e-14
3783.35 1.1452e-14
3786.09 1.0959e-14
3788.83 1.0943e-14
3791.57 9.9324e-15
3794.31 9.232e-15
3797.04 9.3665e-15
3799.78 9.2927e-15
3802.52 9.9104e-15
3805.26 1.0586e-14
3807.99 1.0528e-14
3810.73 1.1854e-14
3813.47 1.1885e-14
3816.21 1.0559e-14
3818.95 1.0023e-14
3821.68 1.0553e-14
3824.42 1.0016e-14
3827.16 9.433e-15
3829.9 9.8251e-15
3832.64 9.4897e-15
3835.37 7.749e-15
3838.11 7.6122e-15
3840.85 8.4874e-15
3843.59 9.9915e-15
3846.33 9.974e-15
3849.06 1.0532e-14
3851.8 1.1637e-14
3854.54 1.1995e-14
3857.28 1.1598e-14
3860.02 1.2174e-14
3862.75 1.2851e-14
3865.49 1.2524e-14
3868.23 1.1612e-14
3870.97 1.2008e-14
3873.71 1.1529e-14
3876.44 1.0642e-14
3879.18 1.0677e-14
3881.92 1.059e-14
3884.66 1.0377e-14
3887.4 1.027e-14
3890.13 1.0137e-14
3892.87 9.2107e-15
3895.61 9.4739e-15
3898.35 1.0498e-14
3901.09 1.1306e-14
3903.82 1.193e-14
3906.56 1.1295e-14
3909.3 1.1298e-14
3912.04 1.225e-14
3914.77 1.2982e-14
3917.51 1.1747e-14
3920.25 1.162e-14
3922.99 1.1472e-14
3925.73 1.1106e-14
3928.46 1.0339e-14
3931.2 8.9076e-15
3933.94 7.5758e-15
3936.68 7.7272e-15
3939.42 8.5123e-15
3942.15 9.7924e-15
3944.89 1.0421e-14
3947.63 1.1275e-14
3950.37 1.2024e-14
3953.11 1.1941e-14
3955.84 1.104e-14
3958.58 1.1461e-14
3961.32 1.0467e-14
3964.06 9.1564e-15
3966.8 8.6261e-15
3969.53 8.3141e-15
3972.27 8.7807e-15
3975.01 9.6833e-15
3977.75 9.9489e-15
3980.49 1.0836e-14
3983.22 1.2064e-14
3985.96 1.2939e-14
3988.7 1.397e-14
3991.44 1.4646e-14
3994.18 1.3867e-14
3996.91 1.3188e-14
3999.65 1.3622e-14
4002.39 1.299e-14
4005.13 1.3265e-14
4007.87 1.3177e-14
4010.6 1.3389e-14
4013.34 1.3384e-14
4016.08 1.4478e-14
4018.82 1.4384e-14
4021.56 1.4441e-14
4024.29 1.3757e-14
4027.03 1.6094e-14
4029.77 1.4543e-14
4032.51 1.3852e-14
4035.24 1.38e-14
4037.98 1.4223e-14
4040.72 1.3714e-14
4043.46 1.4322e-14
4046.2 1.3797e-14
4048.93 1.4652e-14
4051.67 1.4983e-14
4054.41 1.4798e-14
4057.15 1.3899e-14
4059.89 1.4846e-14
4062.62 1.3129e-14
4065.36 1.3634e-14
4068.1 1.5256e-14
4070.84 1.489e-14
4073.58 1.352e-14
4076.31 1.2919e-14
4079.05 1.274e-14
4081.79 1.28e-14
4084.53 1.3878e-14
4087.27 1.5275e-14
4090.0 1.4256e-14
4092.74 1.3656e-14
4095.48 1.339e-14
4098.22 1.3394e-14
4100.96 1.2855e-14
4103.69 1.1788e-14
4106.43 1.2449e-14
4109.17 1.2926e-14
4111.91 1.4061e-14
4114.65 1.3249e-14
4117.38 1.3277e-14
4120.12 1.3971e-14
4122.86 1.4408e-14
4125.6 1.4591e-14
4128.34 1.5084e-14
4131.07 1.3972e-14
4133.81 1.4247e-14
4136.55 1.4304e-14
4139.29 1.498e-14
4142.03 1.4615e-14
4144.76 1.3768e-14
4147.5 1.4188e-14
4150.24 1.4466e-14
4152.98 1.3844e-14
4155.71 1.343e-14
4158.45 1.4618e-14
4161.19 1.4036e-14
4163.93 1.494e-14
4166.67 1.4151e-14
4169.4 1.4863e-14
4172.14 1.4063e-14
4174.88 1.372e-14
4177.62 1.31e-14
4180.36 1.314e-14
4183.09 1.3979e-14
4185.83 1.3902e-14
4188.57 1.3634e-14
4191.31 1.3524e-14
4194.05 1.3915e-14
4196.78 1.4008e-14
4199.52 1.3534e-14
4202.26 1.4394e-14
4205.0 1.3852e-14
4207.74 1.4161e-14
4210.47 1.4665e-14
4213.21 1.4602e-14
4215.95 1.4369e-14
4218.69 1.402e-14
4221.43 1.4154e-14
4224.16 1.3931e-14
4226.9 1.3991e-14
4229.64 1.3548e-14
4232.38 1.3935e-14
4235.12 1.3505e-14
4237.85 1.3647e-14
4240.59 1.383e-14
4243.33 1.3976e-14
4246.07 1.4238e-14
4248.81 1.4025e-14
4251.54 1.3273e-14
4254.28 1.3818e-14
4257.02 1.4027e-14
4259.76 1.4511e-14
4262.5 1.4536e-14
4265.23 1.4203e-14
4267.97 1.3908e-14
4270.71 1.4689e-14
4273.45 1.3913e-14
4276.18 1.4012e-14
4278.92 1.4553e-14
4281.66 1.4053e-14
4284.4 1.4193e-14
4287.14 1.3279e-14
4289.87 1.2622e-14
4292.61 1.322e-14
4295.35 1.3138e-14
4298.09 1.3112e-14
4300.83 1.2454e-14
4303.56 1.1562e-14
4306.3 1.1561e-14
4309.04 1.1929e-14
4311.78 1.2165e-14
4314.52 1.2677e-14
4317.25 1.3289e-14
4319.99 1.4133e-14
4322.73 1.4436e-14
4325.47 1.3603e-14
4328.21 1.3416e-14
4330.94 1.3419e-14
4333.68 1.3349e-14
4336.42 1.3998e-14
4339.16 1.5104e-14
4341.9 1.4763e-14
4344.63 1.4635e-14
4347.37 1.3912e-14
4350.11 1.3107e-14
4352.85 1.3747e-14
4355.59 1.4046e-14
4358.32 1.4694e-14
4361.06 1.4964e-14
4363.8 1.4487e-14
4366.54 1.548e-14
4369.28 1.4561e-14
4372.01 1.463e-14
4374.75 1.4802e-14
4377.49 1.4846e-14
4380.23 1.4354e-14
4382.96 1.3983e-14
4385.7 1.3515e-14
4388.44 1.3989e-14
4391.18 1.3711e-14
4393.92 1.4617e-14
4396.65 1.4505e-14
4399.39 1.3755e-14
4402.13 1.4877e-14
4404.87 1.4591e-14
4407.61 1.3115e-14
4410.34 1.4774e-14
4413.08 1.4811e-14
4415.82 1.5231e-14
4418.56 1.4925e-14
4421.3 1.5271e-14
4424.03 1.5024e-14
4426.77 1.5304e-14
4429.51 1.4942e-14
4432.25 1.4081e-14
4434.99 1.448e-14
4437.72 1.5266e-14
4440.46 1.5198e-14
4443.2 1.4836e-14
4445.94 1.5208e-14
4448.68 1.5602e-14
4451.41 1.5202e-14
4454.15 1.5335e-14
4456.89 1.5423e-14
4459.63 1.4659e-14
4462.37 1.4885e-14
4465.1 1.524e-14
4467.84 1.5713e-14
4470.58 1.5476e-14
4473.32 1.5944e-14
4476.06 1.5238e-14
4478.79 1.619e-14
4481.53 1.5826e-14
4484.27 1.5354e-14
4487.01 1.601e-14
4489.75 1.5757e-14
4492.48 1.5343e-14
4495.22 1.539e-14
4497.96 1.589e-14
4500.7 1.642e-14
4503.43 1.6115e-14
4506.17 1.6263e-14
4508.91 1.6328e-14
4511.65 1.6541e-14
4514.39 1.6887e-14
4517.12 1.6313e-14
4519.86 1.648e-14
4522.6 1.6081e-14
4525.34 1.6459e-14
4528.08 1.4803e-14
4530.81 1.4633e-14
4533.55 1.5137e-14
4536.29 1.5116e-14
4539.03 1.5526e-14
4541.77 1.58e-14
4544.5 1.6277e-14
4547.24 1.6301e-14
4549.98 1.4754e-14
4552.72 1.6151e-14
4555.46 1.5342e-14
4558.19 1.5881e-14
4560.93 1.6731e-14
4563.67 1.6124e-14
4566.41 1.601e-14
4569.15 1.5535e-14
4571.88 1.5929e-14
4574.62 1.5994e-14
4577.36 1.6588e-14
4580.1 1.6063e-14
4582.84 1.5906e-14
4585.57 1.5554e-14
4588.31 1.5563e-14
4591.05 1.5175e-14
4593.79 1.6057e-14
4596.53 1.5272e-14
4599.26 1.5877e-14
4602.0 1.6281e-14
4604.74 1.6091e-14
4607.48 1.6434e-14
4610.22 1.5947e-14
4612.95 1.6417e-14
4615.69 1.6622e-14
4618.43 1.6609e-14
4621.17 1.6412e-14
4623.9 1.6086e-14
4626.64 1.5975e-14
4629.38 1.6977e-14
4632.12 1.6525e-14
4634.86 1.657e-14
4637.59 1.6814e-14
4640.33 1.5724e-14
4643.07 1.5367e-14
4645.81 1.6312e-14
4648.55 1.5397e-14
4651.28 1.5968e-14
4654.02 1.6443e-14
4656.76 1.6336e-14
4659.5 1.6241e-14
4662.24 1.609e-14
4664.97 1.6001e-14
4667.71 1.6118e-14
4670.45 1.541e-14
4673.19 1.5535e-14
4675.93 1.6713e-14
4678.66 1.5957e-14
4681.4 1.6488e-14
4684.14 1.5339e-14
4686.88 1.5967e-14
4689.62 1.5836e-14
4692.35 1.5463e-14
4695.09 1.5778e-14
4697.83 1.5743e-14
4700.57 1.6046e-14
4703.31 1.5958e-14
4706.04 1.5874e-14
4708.78 1.5834e-14
4711.52 1.5816e-14
4714.26 1.6197e-14
4717.0 1.5296e-14
4719.73 1.6628e-14
4722.47 1.6781e-14
4725.21 1.5775e-14
4727.95 1.5256e-14
4730.68 1.5231e-14
4733.42 1.63e-14
4736.16 1.621e-14
4738.9 1.5688e-14
4741.64 1.5587e-14
4744.37 1.6266e-14
4747.11 1.631e-14
4749.85 1.5965e-14
4752.59 1.6889e-14
4755.33 1.5777e-14
4758.06 1.6409e-14
4760.8 1.6806e-14
4763.54 1.542e-14
4766.28 1.5358e-14
4769.02 1.5875e-14
4771.75 1.5888e-14
4774.49 1.6623e-14
4777.23 1.6722e-14
4779.97 1.7034e-14
4782.71 1.6446e-14
4785.44 1.5957e-14
4788.18 1.5864e-14
4790.92 1.5553e-14
4793.66 1.6136e-14
4796.4 1.6579e-14
4799.13 1.5913e-14
4801.87 1.6034e-14
4804.61 1.6229e-14
4807.35 1.6716e-14
4810.09 1.6445e-14
4812.82 1.6398e-14
4815.56 1.6747e-14
4818.3 1.6815e-14
4821.04 1.6711e-14
4823.78 1.6811e-14
4826.51 1.6444e-14
4829.25 1.7049e-14
4831.99 1.6685e-14
4834.73 1.6875e-14
4837.47 1.5875e-14
4840.2 1.6197e-14
4842.94 1.6608e-14
4845.68 1.6099e-14
4848.42 1.6112e-14
4851.15 1.5704e-14
4853.89 1.5617e-14
4856.63 1.6778e-14
4859.37 1.8805e-14
4862.11 2.2398e-14
4864.84 2.1737e-14
4867.58 1.8522e-14
4870.32 1.5403e-14
4873.06 1.5468e-14
4875.8 1.4191e-14
4878.53 1.4762e-14
4881.27 1.5191e-14
4884.01 1.4934e-14
4886.75 1.4842e-14
4889.49 1.5131e-14
4892.22 1.5475e-14
4894.96 1.6156e-14
4897.7 1.6627e-14
4900.44 1.6526e-14
4903.18 1.6523e-14
4905.91 1.6713e-14
4908.65 1.5607e-14
4911.39 1.553e-14
4914.13 1.5584e-14
4916.87 1.6212e-14
4919.6 1.5905e-14
4922.34 1.5416e-14
4925.08 1.4907e-14
4927.82 1.568e-14
4930.56 1.5455e-14
4933.29 1.6107e-14
4936.03 1.614e-14
4938.77 1.5808e-14
4941.51 1.5783e-14
4944.25 1.5854e-14
4946.98 1.6152e-14
4949.72 1.636e-14
4952.46 1.7509e-14
4955.2 1.762e-14
4957.94 1.7121e-14
4960.67 1.7564e-14
4963.41 1.707e-14
4966.15 1.66e-14
4968.89 1.6183e-14
4971.62 1.6514e-14
4974.36 1.6795e-14
4977.1 1.6145e-14
4979.84 1.5692e-14
4982.58 1.5634e-14
4985.31 1.5961e-14
4988.05 1.5327e-14
4990.79 1.5393e-14
4993.53 1.5847e-14
4996.27 1.5596e-14
4999.0 1.5889e-14
5001.74 1.6433e-14
5004.48 1.8173e-14
5007.22 1.9757e-14
5009.96 1.9715e-14
5012.69 1.7676e-14
5015.43 1.5832e-14
5018.17 1.5223e-14
5020.91 1.5029e-14
5023.65 1.5447e-14
5026.38 1.553e-14
5029.12 1.5785e-14
5031.86 1.568e-14
5034.6 1.5411e-14
5037.34 1.561e-14
5040.07 1.4967e-14
5042.81 1.5509e-14
5045.55 1.6268e-14
5048.29 1.5418e-14
5051.03 1.5618e-14
5053.76 1.6255e-14
5056.5 1.6047e-14
5059.24 1.6116e-14
5061.98 1.6354e-14
5064.72 1.6594e-14
5067.45 1.5968e-14
5070.19 1.557e-14
5072.93 1.5248e-14
5075.67 1.5836e-14
5078.41 1.5606e-14
5081.14 1.5704e-14
5083.88 1.5489e-14
5086.62 1.566e-14
5089.36 1.5804e-14
5092.09 1.598e-14
5094.83 1.6077e-14
5097.57 1.578e-14
5100.31 1.6019e-14
5103.05 1.5399e-14
5105.78 1.5687e-14
5108.52 1.5762e-14
5111.26 1.6072e-14
5114.0 1.5386e-14
5116.74 1.636e-14
5119.47 1.6311e-14
5122.21 1.5497e-14
5124.95 1.5828e-14
5127.69 1.5368e-14
5130.43 1.5345e-14
5133.16 1.5621e-14
5135.9 1.5733e-14
5138.64 1.535e-14
5141.38 1.5277e-14
5144.12 1.5383e-14
5146.85 1.5382e-14
5149.59 1.5543e-14
5152.33 1.5126e-14
5155.07 1.5164e-14
5157.81 1.5446e-14
5160.54 1.5576e-14
5163.28 1.5905e-14
5166.02 1.4801e-14
5168.76 1.3886e-14
5171.5 1.3129e-14
5174.23 1.3877e-14
5176.97 1.4118e-14
5179.71 1.5007e-14
5182.45 1.4419e-14
5185.19 1.3908e-14
5187.92 1.5098e-14
5190.66 1.5068e-14
5193.4 1.5068e-14
5196.14 1.5093e-14
5198.87 1.5755e-14
5201.61 1.6139e-14
5204.35 1.52e-14
5207.09 1.4706e-14
5209.83 1.4651e-14
5212.56 1.5577e-14
5215.3 1.5617e-14
5218.04 1.5649e-14
5220.78 1.6122e-14
5223.52 1.5576e-14
5226.25 1.5312e-14
5228.99 1.4937e-14
5231.73 1.5173e-14
5234.47 1.5317e-14
5237.21 1.6277e-14
5239.94 1.5657e-14
5242.68 1.6121e-14
5245.42 1.6128e-14
5248.16 1.5952e-14
5250.9 1.5075e-14
5253.63 1.5476e-14
5256.37 1.5388e-14
5259.11 1.5752e-14
5261.85 1.6e-14
5264.59 1.5122e-14
5267.32 1.4648e-14
5270.06 1.4142e-14
5272.8 1.4749e-14
5275.54 1.5349e-14
5278.28 1.5682e-14
5281.01 1.5926e-14
5283.75 1.5858e-14
5286.49 1.6264e-14
5289.23 1.6661e-14
5291.97 1.6907e-14
5294.7 1.6147e-14
5297.44 1.5941e-14
5300.18 1.63e-14
5302.92 1.6611e-14
5305.66 1.6711e-14
5308.39 1.7096e-14
5311.13 1.6868e-14
5313.87 1.7198e-14
5316.61 1.6646e-14
5319.34 1.6491e-14
5322.08 1.6279e-14
5324.82 1.5681e-14
5327.56 1.5979e-14
5330.3 1.5356e-14
5333.03 1.5913e-14
5335.77 1.6012e-14
5338.51 1.6275e-14
5341.25 1.6317e-14
5343.99 1.6229e-14
5346.72 1.6384e-14
5349.46 1.6079e-14
5352.2 1.6913e-14
5354.94 1.6975e-14
5357.68 1.681e-14
5360.41 1.6927e-14
5363.15 1.7504e-14
5365.89 1.6629e-14
5368.63 1.5856e-14
5371.37 1.5924e-14
5374.1 1.5911e-14
5376.84 1.6377e-14
5379.58 1.6521e-14
5382.32 1.7216e-14
5385.06 1.6904e-14
5387.79 1.6746e-14
5390.53 1.6736e-14
5393.27 1.6065e-14
5396.01 1.5663e-14
5398.75 1.5503e-14
5401.48 1.6309e-14
5404.22 1.5717e-14
5406.96 1.5859e-14
5409.7 1.6054e-14
5412.44 1.5784e-14
5415.17 1.6554e-14
5417.91 1.6681e-14
5420.65 1.6489e-14
5423.39 1.6352e-14
5426.13 1.6088e-14
5428.86 1.6725e-14
5431.6 1.5223e-14
5434.34 1.5741e-14
5437.08 1.5815e-14
5439.81 1.6361e-14
5442.55 1.6398e-14
5445.29 1.5981e-14
5448.03 1.5875e-14
5450.77 1.6034e-14
5453.5 1.5541e-14
5456.24 1.5731e-14
5458.98 1.6375e-14
5461.72 1.7049e-14
5464.46 1.6449e-14
5467.19 1.6692e-14
5469.93 1.5811e-14
5472.67 1.6366e-14
5475.41 1.6468e-14
5478.15 1.6144e-14
5480.88 1.6999e-14
5483.62 1.5762e-14
5486.36 1.6746e-14
5489.1 1.6587e-14
5491.84 1.6588e-14
5494.57 1.6497e-14
5497.31 1.6809e-14
5500.05 1.6456e-14
5502.79 1.7031e-14
5505.53 1.6173e-14
5508.26 1.6237e-14
5511.0 1.6994e-14
5513.74 1.6758e-14
5516.48 1.6601e-14
5519.22 1.6559e-14
5521.95 1.7746e-14
5524.69 1.6364e-14
5527.43 1.6266e-14
5530.17 1.6438e-14
5532.91 1.5706e-14
5535.64 1.551e-14
5538.38 1.6025e-14
5541.12 1.643e-14
5543.86 1.6071e-14
5546.59 1.6502e-14
5549.33 1.5905e-14
5552.07 1.6614e-14
5554.81 1.6347e-14
5557.55 1.6274e-14
5560.28 1.6534e-14
5563.02 1.5973e-14
5565.76 1.6712e-14
5568.5 1.5995e-14
5571.24 1.6881e-14
5573.97 1.6363e-14
5576.71 1.7163e-14
5579.45 1.6584e-14
5582.19 1.7156e-14
5584.93 1.652e-14
5587.66 1.5908e-14
5590.4 1.6145e-14
5593.14 1.5295e-14
5595.88 1.675e-14
5598.62 1.6304e-14
5601.35 1.6076e-14
5604.09 1.5672e-14
5606.83 1.6157e-14
5609.57 1.5905e-14
5612.31 1.6378e-14
5615.04 1.6193e-14
5617.78 1.6443e-14
5620.52 1.6528e-14
5623.26 1.6458e-14
5626.0 1.5657e-14
5628.73 1.6169e-14
5631.47 1.6148e-14
5634.21 1.6684e-14
5636.95 1.6477e-14
5639.69 1.6176e-14
5642.42 1.5695e-14
5645.16 1.6378e-14
5647.9 1.7098e-14
5650.64 1.5968e-14
5653.38 1.6243e-14
5656.11 1.6523e-14
5658.85 1.6545e-14
5661.59 1.6373e-14
5664.33 1.6976e-14
5667.06 1.6276e-14
5669.8 1.5743e-14
5672.54 1.6636e-14
5675.28 1.6606e-14
5678.02 1.6544e-14
5680.75 1.6445e-14
5683.49 1.6651e-14
5686.23 1.6604e-14
5688.97 1.6431e-14
5691.71 1.6654e-14
5694.44 1.684e-14
5697.18 1.6208e-14
5699.92 1.697e-14
5702.66 1.6893e-14
5705.4 1.6522e-14
5708.13 1.644e-14
5710.87 1.629e-14
5713.61 1.637e-14
5716.35 1.6512e-14
5719.09 1.6495e-14
5721.82 1.7064e-14
5724.56 1.6985e-14
5727.3 1.6843e-14
5730.04 1.6266e-14
5732.78 1.733e-14
5735.51 1.7013e-14
5738.25 1.677e-14
5740.99 1.6758e-14
5743.73 1.681e-14
5746.47 1.7039e-14
5749.2 1.6834e-14
5751.94 1.6462e-14
5754.68 1.6447e-14
5757.42 1.686e-14
5760.16 1.6468e-14
5762.89 1.597e-14
5765.63 1.6606e-14
5768.37 1.6443e-14
5771.11 1.7098e-14
5773.85 1.6427e-14
5776.58 1.6328e-14
5779.32 1.665e-14
5782.06 1.6057e-14
5784.8 1.6064e-14
5787.53 1.5772e-14
5790.27 1.6332e-14
5793.01 1.6622e-14
5795.75 1.6398e-14
5798.49 1.6503e-14
5801.22 1.6631e-14
5803.96 1.6385e-14
5806.7 1.7168e-14
5809.44 1.6284e-14
5812.18 1.5758e-14
5814.91 1.6351e-14
5817.65 1.6898e-14
5820.39 1.7043e-14
5823.13 1.6402e-14
5825.87 1.6599e-14
5828.6 1.699e-14
5831.34 1.6487e-14
5834.08 1.7114e-14
5836.82 1.7809e-14
5839.56 1.7304e-14
5842.29 1.7631e-14
5845.03 1.6969e-14
5847.77 1.6839e-14
5850.51 1.734e-14
5853.25 1.7296e-14
5855.98 1.658e-14
5858.72 1.6104e-14
5861.46 1.6098e-14
5864.2 1.7284e-14
5866.94 1.5707e-14
5869.67 1.6565e-14
5872.41 1.6414e-14
5875.15 1.7322e-14
5877.89 1.6188e-14
5880.63 1.72e-14
5883.36 1.6482e-14
5886.1 1.5973e-14
5888.84 1.5431e-14
5891.58 1.5126e-14
5894.32 1.4308e-14
5897.05 1.4764e-14
5899.79 1.5585e-14
5902.53 1.6017e-14
5905.27 1.6826e-14
5908.0 1.6536e-14
5910.74 1.5947e-14
5913.48 1.6126e-14
5916.22 1.654e-14
5918.96 1.6344e-14
5921.69 1.6205e-14
5924.43 1.6147e-14
5927.17 1.6254e-14
5929.91 1.6719e-14
5932.65 1.6395e-14
5935.38 1.6292e-14
5938.12 1.6091e-14
5940.86 1.6311e-14
5943.6 1.6657e-14
5946.34 1.7078e-14
5949.07 1.7276e-14
5951.81 1.5763e-14
5954.55 1.5541e-14
5957.29 1.5468e-14
5960.03 1.6335e-14
5962.76 1.6425e-14
5965.5 1.5728e-14
5968.24 1.6174e-14
5970.98 1.6311e-14
5973.72 1.6022e-14
5976.45 1.6403e-14
5979.19 1.5986e-14
5981.93 1.6479e-14
5984.67 1.5457e-14
5987.41 1.561e-14
5990.14 1.7209e-14
5992.88 1.6079e-14
5995.62 1.5934e-14
5998.36 1.6249e-14
6001.1 1.6218e-14
6003.83 1.6339e-14
6006.57 1.575e-14
6009.31 1.5504e-14
6012.05 1.6702e-14
6014.78 1.6072e-14
6017.52 1.6988e-14
6020.26 1.6532e-14
6023.0 1.647e-14
6025.74 1.6094e-14
6028.47 1.5881e-14
6031.21 1.557e-14
6033.95 1.5975e-14
6036.69 1.6304e-14
6039.43 1.6619e-14
6042.16 1.6463e-14
6044.9 1.6799e-14
6047.64 1.6585e-14
6050.38 1.6469e-14
6053.12 1.6629e-14
6055.85 1.6885e-14
6058.59 1.6253e-14
6061.33 1.6266e-14
6064.07 1.659e-14
6066.81 1.6588e-14
6069.54 1.6245e-14
6072.28 1.6772e-14
6075.02 1.6012e-14
6077.76 1.6278e-14
6080.5 1.652e-14
6083.23 1.638e-14
6085.97 1.5886e-14
6088.71 1.6919e-14
6091.45 1.6709e-14
6094.19 1.6529e-14
6096.92 1.6292e-14
6099.66 1.658e-14
6102.4 1.6739e-14
6105.14 1.623e-14
6107.88 1.6563e-14
6110.61 1.6486e-14
6113.35 1.6764e-14
6116.09 1.6261e-14
6118.83 1.6399e-14
6121.57 1.6248e-14
6124.3 1.6181e-14
6127.04 1.6105e-14
6129.78 1.6721e-14
6132.52 1.6671e-14
6135.25 1.6597e-14
6137.99 1.6475e-14
6140.73 1.5723e-14
6143.47 1.6511e-14
6146.21 1.6715e-14
6148.94 1.636e-14
6151.68 1.6444e-14
6154.42 1.6265e-14
6157.16 1.6094e-14
6159.9 1.5606e-14
6162.63 1.5312e-14
6165.37 1.53e-14
6168.11 1.4913e-14
6170.85 1.5157e-14
6173.59 1.5885e-14
6176.32 1.5552e-14
6179.06 1.5534e-14
6181.8 1.6076e-14
6184.54 1.6075e-14
6187.28 1.5283e-14
6190.01 1.5269e-14
6192.75 1.5512e-14
6195.49 1.5708e-14
6198.23 1.5899e-14
6200.97 1.6016e-14
6203.7 1.6319e-14
6206.44 1.6547e-14
6209.18 1.6336e-14
6211.92 1.5839e-14
6214.66 1.574e-14
6217.39 1.4757e-14
6220.13 1.4755e-14
6222.87 1.539e-14
6225.61 1.5249e-14
6228.35 1.5827e-14
6231.08 1.6012e-14
6233.82 1.505e-14
6236.56 1.5241e-14
6239.3 1.558e-14
6242.04 1.5626e-14
6244.77 1.4888e-14
6247.51 1.5331e-14
6250.25 1.5589e-14
6252.99 1.5832e-14
6255.72 1.5108e-14
6258.46 1.514e-14
6261.2 1.4488e-14
6263.94 1.5191e-14
6266.68 1.5249e-14
6269.41 1.5451e-14
6272.15 1.5318e-14
6274.89 1.6132e-14
6277.63 1.6199e-14
6280.37 1.5285e-14
6283.1 1.5382e-14
6285.84 1.5077e-14
6288.58 1.5667e-14
6291.32 1.5826e-14
6294.06 1.5714e-14
6296.79 1.6059e-14
6299.53 1.7585e-14
6302.27 1.6739e-14
6305.01 1.6695e-14
6307.75 1.6284e-14
6310.48 1.6161e-14
6313.22 1.5877e-14
6315.96 1.6063e-14
6318.7 1.5886e-14
6321.44 1.5314e-14
6324.17 1.6182e-14
6326.91 1.5662e-14
6329.65 1.6006e-14
6332.39 1.6496e-14
6335.13 1.6059e-14
6337.86 1.6126e-14
6340.6 1.6139e-14
6343.34 1.5945e-14
6346.08 1.6051e-14
6348.82 1.5742e-14
6351.55 1.6891e-14
6354.29 1.545e-14
6357.03 1.6081e-14
6359.77 1.557e-14
6362.5 1.5793e-14
6365.24 1.6136e-14
6367.98 1.5361e-14
6370.72 1.5546e-14
6373.46 1.6115e-14
6376.19 1.6251e-14
6378.93 1.6162e-14
6381.67 1.6327e-14
6384.41 1.6508e-14
6387.15 1.5822e-14
6389.88 1.5426e-14
6392.62 1.6349e-14
6395.36 1.6889e-14
6398.1 1.6235e-14
6400.84 1.5728e-14
6403.57 1.5912e-14
6406.31 1.633e-14
6409.05 1.6185e-14
6411.79 1.5967e-14
6414.53 1.5959e-14
6417.26 1.5847e-14
6420.0 1.5905e-14
6422.74 1.5709e-14
6425.48 1.5407e-14
6428.22 1.5388e-14
6430.95 1.6246e-14
6433.69 1.6494e-14
6436.43 1.5858e-14
6439.17 1.5165e-14
6441.91 1.5556e-14
6444.64 1.5781e-14
6447.38 1.518e-14
6450.12 1.4974e-14
6452.86 1.4863e-14
6455.6 1.4986e-14
6458.33 1.5657e-14
6461.07 1.6099e-14
6463.81 1.6018e-14
6466.55 1.56e-14
6469.29 1.5566e-14
6472.02 1.6619e-14
6474.76 1.5696e-14
6477.5 1.6374e-14
6480.24 1.7155e-14
6482.97 1.6753e-14
6485.71 1.6391e-14
6488.45 1.5715e-14
6491.19 1.6187e-14
6493.93 1.5711e-14
6496.66 1.5173e-14
6499.4 1.5264e-14
6502.14 1.588e-14
6504.88 1.5461e-14
6507.62 1.5846e-14
6510.35 1.561e-14
6513.09 1.5821e-14
6515.83 1.6171e-14
6518.57 1.669e-14
6521.31 1.7779e-14
6524.04 1.6311e-14
6526.78 1.5722e-14
6529.52 1.643e-14
6532.26 1.5368e-14
6535.0 1.5493e-14
6537.73 1.6358e-14
6540.47 1.5143e-14
6543.21 1.689e-14
6545.95 1.9522e-14
6548.69 2.1276e-14
6551.42 2.064e-14
6554.16 1.9573e-14
6556.9 2.0056e-14
6559.64 2.931e-14
6562.38 4.683e-14
6565.11 5.5323e-14
6567.85 4.5546e-14
6570.59 2.8986e-14
6573.33 2.1789e-14
6576.07 1.8275e-14
6578.8 1.8764e-14
6581.54 2.5178e-14
6584.28 3.1353e-14
6587.02 3.0825e-14
6589.76 2.4655e-14
6592.49 1.904e-14
6595.23 1.6699e-14
6597.97 1.6189e-14
6600.71 1.6794e-14
6603.44 1.6956e-14
6606.18 1.6875e-14
6608.92 1.6888e-14
6611.66 1.6373e-14
6614.4 1.5927e-14
6617.13 1.5889e-14
6619.87 1.64e-14
6622.61 1.6215e-14
6625.35 1.5576e-14
6628.09 1.5954e-14
6630.82 1.6423e-14
6633.56 1.5992e-14
6636.3 1.5546e-14
6639.04 1.57e-14
6641.78 1.5639e-14
6644.51 1.573e-14
6647.25 1.619e-14
6649.99 1.6031e-14
6652.73 1.5843e-14
6655.47 1.6432e-14
6658.2 1.6574e-14
6660.94 1.5872e-14
6663.68 1.5362e-14
6666.42 1.589e-14
6669.16 1.6088e-14
6671.89 1.5565e-14
6674.63 1.5476e-14
6677.37 1.6812e-14
6680.11 1.6e-14
6682.85 1.5603e-14
6685.58 1.5329e-14
6688.32 1.5527e-14
6691.06 1.5642e-14
6693.8 1.5671e-14
6696.54 1.574e-14
6699.27 1.5845e-14
6702.01 1.5197e-14
6704.75 1.5178e-14
6707.49 1.5964e-14
6710.23 1.6201e-14
6712.96 1.7977e-14
6715.7 2.1042e-14
6718.44 2.4301e-14
6721.18 2.2894e-14
6723.91 1.9684e-14
6726.65 1.8264e-14
6729.39 2.0154e-14
6732.13 2.0649e-14
6734.87 2.1245e-14
6737.6 1.8585e-14
6740.34 1.6671e-14
6743.08 1.5677e-14
6745.82 1.5108e-14
6748.56 1.4769e-14
6751.29 1.5158e-14
6754.03 1.4992e-14
6756.77 1.5399e-14
6759.51 1.5993e-14
6762.25 1.5347e-14
6764.98 1.5774e-14
6767.72 1.4825e-14
6770.46 1.4654e-14
6773.2 1.5111e-14
6775.94 1.4934e-14
6778.67 1.5144e-14
6781.41 1.5025e-14
6784.15 1.5033e-14
6786.89 1.5455e-14
6789.63 1.5322e-14
6792.36 1.551e-14
6795.1 1.5208e-14
6797.84 1.449e-14
6809.16 1.5735e-14
6824.85 1.5842e-14
6840.58 1.5804e-14
6856.36 1.5657e-14
6872.16 1.5228e-14
6888.0 1.5438e-14
6903.88 1.5507e-14
6919.8 1.5541e-14
6935.75 1.5468e-14
6951.74 1.5862e-14
6967.76 1.5751e-14
6983.82 1.5179e-14
6999.92 1.5783e-14
7016.06 1.5564e-14
7032.23 1.5384e-14
7048.44 1.6182e-14
7064.69 1.5522e-14
7080.98 1.5628e-14
7097.3 1.4957e-14
7113.66 1.5163e-14
7130.06 1.5022e-14
7146.5 1.4951e-14
7162.97 1.5018e-14
7179.49 1.4913e-14
7196.03 1.4141e-14
7212.62 1.4402e-14
7229.25 1.4941e-14
7245.92 1.5077e-14
7262.62 1.532e-14
7279.36 1.5142e-14
7296.14 1.466e-14
7312.96 1.5243e-14
7329.82 1.5489e-14
7346.72 1.5811e-14
7363.65 1.5028e-14
7380.63 1.5662e-14
7397.64 1.5303e-14
7414.69 1.5371e-14
7431.79 1.5369e-14
7448.92 1.5332e-14
7466.09 1.5615e-14
7483.3 1.5505e-14
7500.55 1.522e-14
7517.84 1.5182e-14
7535.17 1.5714e-14
7552.55 1.5748e-14
7569.96 1.5709e-14
7587.4 1.5743e-14
7604.89 1.5242e-14
7622.43 1.5451e-14
7640.0 1.4994e-14
7657.61 1.5235e-14
7675.26 1.2965e-14
7692.96 1.4714e-14
7710.69 1.3698e-14
7728.47 1.4709e-14
7746.28 1.4912e-14
7764.14 1.4637e-14
7782.03 1.4269e-14
7799.98 1.4701e-14
7817.96 1.453e-14
7835.98 1.4866e-14
7854.04 1.4933e-14
7872.15 1.4862e-14
7890.29 1.4656e-14
7908.49 1.462e-14
7926.72 1.4121e-14
7944.99 1.4217e-14
7963.31 1.438e-14
7981.66 1.4645e-14
8000.06 1.4642e-14
8018.5 1.4607e-14
8036.99 1.4239e-14
8055.51 1.4303e-14
8074.08 1.4803e-14
8092.7 1.4397e-14
8111.35 1.4798e-14
8130.05 1.4796e-14
8148.8 1.4658e-14
8167.58 1.4555e-14
8186.41 1.4026e-14
8205.28 1.324e-14
8224.19 1.4582e-14
8243.15 1.4248e-14
8262.15 1.4678e-14
8281.2 1.4475e-14
8300.29 1.4208e-14
8319.42 1.4108e-14
8338.61 1.4009e-14
8357.83 1.4201e-14
8377.09 1.453e-14
8396.41 1.3434e-14
8415.76 1.4425e-14
8435.16 1.3805e-14
8454.6 1.374e-14
8474.1 1.3706e-14
8493.63 1.4153e-14
8513.21 1.367e-14
8532.84 1.389e-14
8552.5 9.2178e-15
8572.22 1.3917e-14
8591.98 1.3598e-14
8611.79 1.3659e-14
8631.64 1.3531e-14
8651.54 1.3654e-14
8671.48 8.7538e-15
8691.47 1.3217e-14
8711.51 1.3306e-14
8731.59 1.374e-14
8751.72 1.3241e-14
8771.89 1.3516e-14
8792.12 1.3638e-14
8812.38 1.3203e-14
8832.7 1.296e-14
8853.06 1.3475e-14
8873.47 1.243e-14
8893.92 1.3074e-14
8914.42 1.3284e-14
8934.98 1.3069e-14
8955.57 1.274e-14
8976.21 1.2448e-14
8996.91 1.1642e-14
9017.65 1.2301e-14
9038.43 1.3058e-14
9059.27 1.3893e-14
9080.16 1.2437e-14
9101.09 1.2754e-14
9122.07 1.3476e-14
9143.1 1.2662e-14
9164.17 1.1519e-14
9185.3 1.1543e-14
9206.47 1.2539e-14
9227.7 1.228e-14
9248.97 1.2477e-14
9270.29 1.2707e-14
9291.66 1.2675e-14
9313.08 1.3028e-14
9334.55 1.3026e-14
9356.07 1.2993e-14
9377.63 1.2842e-14
9399.25 1.2929e-14
9420.92 1.2897e-14
9442.64 1.2776e-14
9464.4 1.2862e-14
9486.22 1.2831e-14
9508.09 1.2711e-14
9530.01 1.265e-14
9551.98 1.2246e-14
9574.0 1.2558e-14
9596.07 1.2672e-14
9618.19 1.2582e-14
9640.36 1.2551e-14
9662.58 1.2405e-14
9684.86 1.246e-14
9707.19 1.2372e-14
9729.56 1.2313e-14
9751.99 1.2254e-14
9774.47 1.2252e-14
9797.0 1.2137e-14
9819.59 1.2247e-14
9842.22 1.2188e-14
9864.91 1.2102e-14
9887.65 1.2072e-14
9910.45 1.2014e-14
9933.3 1.2012e-14
9956.19 1.201e-14
9979.14 1.198e-14
10025.2 1.1757e-14
10071.48 1.1591e-14
10117.97 1.1667e-14
10164.67 1.1528e-14
10235.13 1.1495e-14
10282.37 1.1438e-14
10306.07 1.1357e-14
10497.67 1.0979e-14
10692.85 1.0543e-14
10891.64 1.0115e-14
11094.13 9.8397e-15
11300.38 9.5275e-15
11510.48 9.3537e-15
11697.51 9.0778e-15
11887.58 8.7898e-15
12108.58 8.5503e-15
12305.33 8.3749e-15
12505.28 8.1655e-15
12708.47 7.9613e-15
12885.26 7.7443e-15
13094.63 7.5854e-15
13307.4 7.3957e-15
13492.53 7.2775e-15
13711.76 7.1282e-15
13902.51 6.9499e-15
14095.92 6.7605e-15
14292.01 6.6371e-15
14490.84 6.6066e-15
14692.42 6.4563e-15
14896.82 6.4414e-15
15104.05 6.3971e-15
15314.16 6.4266e-15
15491.49 6.3824e-15
15707.0 6.2659e-15
15888.88 6.0951e-15
16109.92 6.1092e-15
16296.47 6.0531e-15
16485.16 5.9154e-15
16714.49 5.8074e-15
16908.04 5.6491e-15
17103.83 5.5078e-15
17301.87 5.2842e-15
17502.22 5.1521e-15
17704.89 4.9772e-15
17909.91 4.8304e-15
18117.3 4.6343e-15
18284.93 4.5288e-15
18496.66 4.3952e-15
18710.85 4.2265e-15
18883.97 4.1208e-15
19102.64 4.027e-15
19279.4 3.8903e-15
19502.63 3.7409e-15
19683.09 3.6474e-15
19911.02 3.5398e-15
20095.24 3.4752e-15
20281.18 3.3572e-15
20516.03 3.296e-15
20705.85 3.2061e-15
20897.45 3.1259e-15
21090.82 3.0548e-15
21285.96 2.9853e-15
21482.92 2.9106e-15
21681.69 2.8118e-15
21882.32 2.7668e-15
22084.8 2.6914e-15
22289.13 2.6181e-15
22495.38 2.5526e-15
22703.51 2.4888e-15
22913.6 2.2593e-15
23125.62 2.2438e-15
23285.91 1.9952e-15
23501.38 1.8966e-15
23718.82 1.9186e-15
23883.25 1.7741e-15
24104.22 1.7297e-15
24327.27 1.7178e-15
24495.88 1.618e-15
24722.55 1.6032e-15
24893.91 1.4092e-15
25124.26 1.3931e-15
25298.43 1.3995e-15
25473.77 1.3835e-15
25709.49 1.3931e-15
25887.69 1.3645e-15
26127.24 1.3551e-15
26308.33 1.3212e-15
26490.7 1.3061e-15
26674.31 1.2793e-15
26921.14 1.2618e-15
27107.74 1.2416e-15
27295.65 1.2161e-15
27484.84 1.1967e-15
27675.35 1.1721e-15
27931.44 1.1534e-15
28125.06 1.1324e-15
28320.0 1.1117e-15
28516.29 1.0889e-15
28713.98 1.0666e-15
28913.0 1.0495e-15
29113.43 1.028e-15
29315.22 1.0069e-15
29518.44 9.8851e-16
29723.04 9.7047e-16
29929.09 9.5056e-16
30067.22 9.3321e-16
30275.62 9.1407e-16
30485.5 9.0153e-16
30696.8 8.8508e-16
30909.6 8.6892e-16
31123.84 8.5503e-16
31267.53 8.4136e-16
31484.25 8.26e-16
31702.47 8.128e-16
31922.24 8.0164e-16
32069.57 7.9064e-16
32291.89 7.834e-16
32515.71 7.8883e-16
32665.79 8.2221e-16
32892.23 9.3537e-16
33120.21 9.2041e-16
33273.11 7.78e-16
33503.74 7.1942e-16
33736.0 6.8704e-16
33891.7 6.6524e-16
34126.61 6.4861e-16
34284.16 6.353e-16
34521.79 6.2084e-16
34681.12 6.0811e-16
34921.54 5.9564e-16
35082.72 5.8476e-16
35325.92 5.7277e-16
35488.97 5.6102e-16
35734.95 5.5078e-16
35899.92 5.4073e-16
36065.61 5.3086e-16
36315.59 5.1997e-16
36483.24 5.1048e-16
36736.12 5.0001e-16
36905.67 4.8976e-16
37076.05 4.8082e-16
37333.02 4.7313e-16
37505.37 4.6236e-16
37678.48 4.5602e-16
37939.64 4.4769e-16
38114.79 4.3952e-16
38290.7 4.325e-16
38467.43 4.2558e-16
38734.1 4.1685e-16
38912.87 4.1019e-16
39092.47 4.027e-16
39272.95 3.9626e-16
39545.15 3.8903e-16
39727.67 3.8281e-16
39911.08 3.7496e-16
40095.29 3.6896e-16
40280.34 3.639e-16
40466.3 3.5644e-16
40746.78 3.5236e-16
40934.84 3.4672e-16
41123.82 3.4118e-16
41313.63 3.365e-16
41504.31 3.3112e-16
41695.92 3.2582e-16
41888.36 3.2135e-16
42081.7 3.1621e-16
42275.92 3.1188e-16
42471.09 3.0689e-16
42667.11 3.0338e-16
42864.04 2.924e-16
43061.93 2.8183e-16
43260.68 2.8118e-16
43460.34 2.7163e-16
43660.98 2.6606e-16
43862.5 2.6241e-16
44064.94 2.5409e-16
44268.32 2.5118e-16
44472.69 2.4716e-16
44677.95 2.4098e-16
44884.16 2.4043e-16
45091.37 2.3604e-16
45299.49 2.312e-16
45508.57 2.3013e-16
45718.66 2.2802e-16
45929.67 2.2232e-16
46141.66 2.2232e-16
46248.02 2.1927e-16
46461.52 2.1676e-16
46675.97 2.1577e-16
46891.4 2.128e-16
47107.87 2.1037e-16
47325.3 2.0988e-16
47543.73 2.0701e-16
47653.32 2.0511e-16
47873.31 2.0323e-16
48094.27 1.9998e-16
48316.24 2.0044e-16
48539.3 1.9769e-16
48651.18 1.9498e-16
48875.73 1.9363e-16
49101.32 1.9142e-16
49328.0 1.901e-16
49555.67 1.8792e-16
49669.9 1.8749e-16
49899.15 1.8601e-16
50129.51 1.8602e-16
50245.06 1.8538e-16
50476.96 1.8411e-16
50709.94 1.8453e-16
50826.89 1.8474e-16
50944.04 1.8453e-16
51061.47 1.8389e-16
51179.17 1.8368e-16
51297.14 1.8389e-16
51415.39 1.8367e-16
51533.96 1.8345e-16
51652.75 1.8408e-16
51771.81 1.8429e-16
51891.15 1.8407e-16
52010.76 1.8385e-16
52130.65 1.8363e-16
52250.82 1.8341e-16
52371.32 1.8361e-16
52492.04 1.8381e-16
52613.03 1.8443e-16
52734.31 1.8506e-16
52855.87 1.8483e-16
52977.7 1.8418e-16
53099.88 1.8438e-16
53222.28 1.8458e-16
53344.96 1.8478e-16
53467.92 1.854e-16
53591.17 1.856e-16
53714.7 1.8579e-16
53838.52 1.8599e-16
53962.68 1.8661e-16
54087.07 1.8681e-16
54211.74 1.87e-16
54336.7 1.8677e-16
54461.95 1.8782e-16
54587.49 1.8845e-16
54713.32 1.8864e-16
54839.5 1.8884e-16
54965.91 1.8947e-16
55092.61 1.901e-16
55219.6 1.9117e-16
55346.88 1.9269e-16
55474.46 1.9244e-16
55602.4 1.9308e-16
55730.56 1.9461e-16
55859.03 1.9525e-16
55987.79 1.959e-16
56116.84 1.97e-16
56246.2 1.981e-16
56375.85 1.9921e-16
56505.86 2.0079e-16
56636.11 2.0238e-16
56766.66 2.0352e-16
56897.51 2.0465e-16
57028.66 2.0627e-16
57160.12 2.0886e-16
57291.94 2.1051e-16
57424.0 2.1266e-16
57556.37 2.1484e-16
57689.04 2.1703e-16
57822.02 2.1975e-16
57955.3 2.2251e-16
58088.89 2.2582e-16
58222.85 2.2865e-16
58357.06 2.3258e-16
58491.58 2.3658e-16
58626.41 2.4065e-16
58761.54 2.4535e-16
58896.99 2.5015e-16
59293.92 2.8801e-17
59602.41 2.82e-16
59910.9 3.1941e-16
60219.41 3.1122e-16
60527.9 4.702e-16
60836.39 4.3571e-16
61144.9 5.0803e-16
61453.39 4.3875e-16
61761.88 8.4003e-16
62070.38 1.2021e-15
62378.87 8.5271e-16
62687.37 8.9734e-16
62995.87 7.1869e-16
63304.36 5.3435e-16
63612.87 4.2037e-16
63921.36 2.9678e-16
64229.85 3.6556e-16
64538.35 3.3453e-16
64846.84 2.143e-16
65155.34 2.2445e-16
65463.84 1.8911e-16
65772.33 2.6302e-16
66080.82 1.7894e-16
66389.33 2.671e-16
66697.82 3.2588e-16
67006.31 3.7193e-16
67314.81 4.095e-16
67623.31 3.6181e-16
67931.81 2.0988e-16
68240.31 5.9031e-17
68548.8 1.6773e-16
68857.3 1.9938e-16
69165.79 1.5641e-16
69474.29 2.5354e-16
69782.78 4.7887e-16
70091.28 3.4318e-16
70399.78 3.2783e-16
70708.27 3.2096e-16
71016.77 2.4781e-16
71325.27 2.2103e-16
71633.76 3.2461e-16
71942.27 2.4934e-16
72250.75 3.7056e-16
72559.25 3.1609e-16
72867.76 3.6906e-16
73176.24 6.2015e-16
73484.74 7.4575e-16
73793.24 6.9636e-16
74101.73 5.7198e-16
74410.23 6.6215e-16
74718.72 6.9915e-16
75007.03 8.0487e-16
75027.22 7.7331e-16
75335.73 7.0873e-16
75625.24 1.1106e-15
75644.21 8.9166e-16
76243.47 1.0622e-15
76861.68 1.0708e-15
77479.91 9.5043e-16
78098.13 8.3486e-16
78716.36 8.6461e-16
79334.58 7.9931e-16
79952.79 6.2871e-16
80571.03 5.0992e-16
81189.24 4.731e-16
81807.46 3.8856e-16
82425.69 4.3822e-16
83043.9 4.0184e-16
83662.14 4.092e-16
84280.35 4.4177e-16
84898.58 4.8937e-16
85516.8 5.5852e-16
86135.03 5.7279e-16
86753.24 4.6037e-16
87371.46 4.0815e-16
87989.69 3.0197e-16
88607.91 2.6179e-16
89226.12 1.6989e-16
89844.35 2.0491e-16
90462.57 1.8719e-16
91080.8 1.8462e-16
91699.02 1.4435e-16
92317.24 1.9335e-16
92935.47 1.5334e-16
93553.68 1.4493e-16
94171.9 1.3936e-16
94790.12 1.1329e-16
95408.35 1.0094e-16
96026.57 1.2882e-16
96644.79 1.2912e-16
97263.02 1.1758e-16
97881.24 1.3723e-16
98499.46 1.2874e-16
99117.69 1.3168e-16
99735.87 1.2328e-16
100354.14 1.309e-16
100972.32 1.2869e-16
101590.6 1.218e-16
102208.78 1.1387e-16
102827.05 8.9697e-17
103445.25 1.0477e-16
104063.43 1.006e-16
104681.7 1.1892e-16
105299.88 1.1498e-16
105918.16 1.3276e-16
106536.34 1.5336e-16
107154.52 1.6549e-16
107772.8 1.6244e-16
108390.99 1.3697e-16
109009.26 1.4802e-16
109627.44 2.1606e-16
110245.72 2.393e-16
110863.9 2.9884e-16
111482.08 3.9603e-16
112100.36 6.5117e-16
112718.54 6.3849e-16
113336.82 4.9956e-16
113955.0 3.9355e-16
114573.28 3.0468e-16
115191.45 2.3156e-16
115809.63 2.2977e-16
116427.92 1.8863e-16
117046.1 1.7629e-16
117664.37 1.7192e-16
118282.55 1.6822e-16
118900.84 2.0977e-16
119519.01 2.2881e-16
120137.19 2.1222e-16
120755.48 2.1973e-16
121373.66 1.8979e-16
121991.93 2.005e-16
122610.11 1.9814e-16
123228.3 2.3215e-16
123846.58 2.135e-16
124464.75 2.3858e-16
125083.03 2.4739e-16
125701.22 2.6554e-16
126319.49 2.7246e-16
126937.68 2.8244e-16
127555.86 3.289e-16
128174.14 4.1299e-16
128792.31 2.8605e-16
129410.59 1.5602e-16
130028.77 1.456e-16
130646.95 1.6214e-16
131265.23 1.5412e-16
131883.42 1.638e-16
132501.7 1.562e-16
133119.87 1.4531e-16
133738.15 1.4899e-16
134356.33 1.3526e-16
134974.52 1.5137e-16
135592.8 1.5688e-16
136210.97 1.1866e-16
136829.25 1.3467e-16
137447.43 1.3232e-16
138065.71 1.4054e-16
138683.88 1.1952e-16
139302.07 1.4387e-16
139920.35 1.3612e-16
140538.54 1.2825e-16
141156.8 1.2225e-16
141774.99 1.2245e-16
142393.27 1.317e-16
143011.45 1.1726e-16
143629.62 1.1504e-16
144247.92 1.0698e-16
144779.87 1.1715e-16
145692.75 1.0816e-16
146605.73 1.0633e-16
147518.62 1.0005e-16
148431.5 1.0973e-16
149344.38 1.0396e-16
150257.37 1.033e-16
151170.26 1.0861e-16
152083.13 1.0149e-16
152996.11 1.1173e-16
153909.0 1.0237e-16
154821.88 1.1962e-16
155734.77 1.3857e-16
156647.75 1.254e-16
157560.64 1.1703e-16
158473.51 1.1594e-16
159386.5 1.2229e-16
160299.39 1.1869e-16
161212.26 1.1438e-16
162125.24 1.2621e-16
163038.13 1.4711e-16
163951.01 1.7362e-16
164863.9 1.8387e-16
165776.89 1.7103e-16
166689.75 1.6819e-16
167602.64 1.6048e-16
168515.53 1.6359e-16
169428.51 1.755e-16
170341.4 1.9893e-16
171254.29 1.9169e-16
172167.28 1.7775e-16
173080.15 1.7441e-16
173993.04 1.7809e-16
174906.02 1.6576e-16
175818.9 1.4892e-16
176731.79 1.3874e-16
177644.66 1.4734e-16
178557.64 1.4148e-16
179470.53 1.3908e-16
180383.41 1.3633e-16
181296.39 1.2598e-16
182209.28 1.3064e-16
183122.15 1.4573e-16
184035.14 1.4601e-16
184948.03 1.4448e-16
185860.92 1.5257e-16
186773.79 2.1928e-16
187686.77 2.1384e-16
188599.66 1.5378e-16
189512.54 1.4029e-16
190425.53 1.4158e-16
191338.42 1.3872e-16
192251.28 1.4255e-16
193164.17 1.2817e-16
194077.17 1.3734e-16
194990.04 1.2904e-16
195902.93 1.2161e-16
196815.92 1.3347e-16
197728.79 1.3124e-16
198641.68 1.2909e-16
199554.57 1.3401e-16
200467.55 1.3639e-16
201380.43 1.3326e-16
202293.32 1.4084e-16
203206.3 1.373e-16
204301.57 1.4049e-16
206059.15 1.4241e-16
207817.8 1.4689e-16
209577.36 1.4143e-16
211338.0 1.4779e-16
213099.66 1.4508e-16
214862.4 1.4223e-16
216626.03 1.5103e-16
218390.77 1.5789e-16
220156.51 1.4796e-16
221923.33 1.3925e-16
223691.17 1.5248e-16
225459.98 1.4909e-16
227229.88 1.5202e-16
229000.79 1.4812e-16
230772.69 1.5241e-16
232545.69 1.503e-16
234319.7 1.6094e-16
236094.78 1.5222e-16
237870.96 1.4886e-16
239648.14 1.5184e-16
241426.32 1.5491e-16
243205.6 1.5413e-16
244985.86 1.57e-16
246767.33 1.5505e-16
248549.69 1.5072e-16
250333.13 1.5686e-16
252117.68 1.5554e-16
253903.33 1.5536e-16
255689.96 1.5864e-16
257477.69 1.5746e-16
259266.52 1.6392e-16
261056.45 1.6276e-16
262847.38 1.5758e-16
264639.37 1.5969e-16
266432.51 1.5951e-16
268226.58 1.5641e-16
270021.9 1.5973e-16
271818.19 1.6593e-16
273615.59 1.6374e-16
275414.08 1.6438e-16
277213.67 1.6331e-16
279014.34 1.641e-16
280816.1 1.6809e-16
282618.98 1.7077e-16
284422.95 1.6686e-16
286228.0 1.6366e-16
288034.15 1.637e-16
289841.39 1.674e-16
291649.74 1.6719e-16
293459.19 1.7161e-16
295269.72 1.6694e-16
297081.44 1.682e-16
298894.27 1.6621e-16
300708.07 1.6732e-16
302523.09 1.7392e-16
304339.19 1.7378e-16
306156.51 1.7519e-16
307974.82 1.7179e-16
309794.31 1.7102e-16
311614.99 1.7487e-16
313436.69 1.7074e-16
315259.58 1.739e-16
317083.61 1.7732e-16
318908.68 1.7686e-16
320734.95 1.8169e-16
322562.44 1.9187e-16
324390.96 1.8267e-16
326220.6 1.8613e-16
328051.48 1.9035e-16
329883.51 1.9276e-16
331716.63 1.9863e-16
333550.88 2.2321e-16
335386.3 2.7393e-16
337222.94 2.125e-16
339060.73 1.9208e-16
340899.64 1.8549e-16
342739.66 1.8265e-16
344580.94 1.942e-16
346423.36 2.182e-16
348266.94 2.6551e-16
