# col1 col2
# An Atlas of Galaxy Spectral Energy Distributions from the Ultraviolet to the Mid-Infrared
# Brown et al. (2014)
# http://dx.doi.org/10.5072/03/529D3551F0117
# 
# Column 1 : Restframe Wavelength (Angstrom)
# Column 2 : Flux per unit wavelength (ergs/s/cm^2/Angstrom)
# Column 3 : Observed wavelength (Angstrom)
# Column 4 : Source (0 = model, 1 = Optical Spectrum, 2 = Akari, 3 = Spitzer IRS)
# 
102.07 3.8118e-19
103.97 4.1892e-19
105.9 4.7548e-19
108.12 5.4844e-19
109.88 7.6583e-19
114.0 9.4001e-19
118.01 1.0968e-18
121.03 3.1925e-18
125.0 3.6739e-18
127.03 3.8827e-18
127.91 4.0284e-18
130.89 4.3165e-18
132.1 4.8655e-18
133.94 5.0714e-18
137.06 5.9584e-18
139.93 6.3552e-18
142.86 1.2478e-17
146.86 2.3181e-17
150.98 2.4611e-17
154.85 2.6311e-17
158.82 2.8257e-17
162.15 2.9726e-17
165.92 3.1925e-17
170.18 3.3739e-17
172.94 3.5329e-17
176.97 3.7165e-17
179.85 3.8648e-17
181.93 3.9731e-17
186.17 4.17e-17
190.94 4.417e-17
194.05 4.5934e-17
198.11 4.7878e-17
201.79 5.0019e-17
205.07 5.1657e-17
209.85 5.2255e-17
216.23 5.7297e-17
220.25 5.9584e-17
222.8 6.0552e-17
226.94 6.3115e-17
230.09 9.5089e-17
233.83 1.5351e-16
239.83 1.8669e-16
245.98 1.7666e-16
251.71 1.8371e-16
256.98 1.5316e-16
259.96 1.7625e-16
264.18 1.8244e-16
269.1 1.8077e-16
274.1 1.7829e-16
279.19 1.7585e-16
283.73 1.7423e-16
289.67 1.6449e-16
295.74 1.6525e-16
301.24 1.5927e-16
308.25 1.5927e-16
318.35 1.5854e-16
328.02 1.5457e-16
337.99 1.4932e-16
348.26 1.4426e-16
357.2 1.4065e-16
366.36 1.3808e-16
374.89 1.3401e-16
385.39 1.2593e-16
395.28 1.2593e-16
405.42 1.2363e-16
413.91 1.2026e-16
421.61 1.1672e-16
430.43 1.1354e-16
441.47 1.1198e-16
450.72 1.0943e-16
460.16 1.0645e-16
469.79 1.0499e-16
479.63 1.0547e-16
489.67 1.0236e-16
499.93 1.0596e-16
505.72 1.0694e-16
511.57 1.4162e-16
519.88 1.4293e-16
529.55 1.4392e-16
539.39 1.3808e-16
549.42 1.5245e-16
559.64 1.7788e-16
570.04 1.964e-16
580.64 1.9821e-16
590.07 2.2036e-16
599.66 2.1734e-16
609.41 2.281e-16
619.31 2.7934e-16
629.37 2.9049e-16
639.6 3.1632e-16
649.99 3.3739e-16
657.52 3.4208e-16
665.13 3.7856e-16
674.38 4.0563e-16
685.34 3.9186e-16
694.87 4.7112e-16
704.54 4.3665e-16
715.99 5.4217e-16
725.95 5.7297e-16
734.36 6.0136e-16
744.57 6.3406e-16
754.93 6.6701e-16
765.43 6.5937e-16
774.29 7.4496e-16
785.07 7.5706e-16
794.16 8.1871e-16
805.2 8.6523e-16
814.53 9.0184e-16
825.86 9.619e-16
835.42 8.3202e-16
845.1 1.0236e-15
854.88 1.0499e-15
864.78 1.1224e-15
874.79 1.1753e-15
884.92 1.2335e-15
895.17 1.2857e-15
905.54 1.3006e-15
916.02 1.521e-15
924.5 6.1113e-15
935.2 1.2166e-14
946.03 2.1734e-14
954.79 2.9385e-14
965.84 3.3973e-14
974.78 7.7114e-15
986.07 3.0912e-14
995.19 3.1127e-14
1004.4 4.1604e-14
1016.03 3.9186e-14
1025.43 1.787e-14
1034.92 2.9318e-14
1044.49 5.0714e-14
1054.16 4.9789e-14
1063.91 4.0938e-14
1076.23 4.7221e-14
1086.19 3.8827e-14
1096.24 4.8432e-14
1103.84 4.6573e-14
1114.05 4.5303e-14
1124.36 4.0938e-14
1134.77 4.9332e-14
1145.27 4.5199e-14
1155.86 4.7112e-14
1163.87 4.8099e-14
1174.64 3.4844e-14
1185.51 4.5934e-14
1193.73 3.3817e-14
1204.78 2.6069e-14
1215.92 1.6639e-14
1224.35 3.1487e-14
1235.68 4.4579e-14
1244.25 4.8432e-14
1255.76 4.6896e-14
1264.46 4.1413e-14
1276.16 5.0714e-14
1285.01 5.2497e-14
1293.92 4.3665e-14
1305.89 4.2967e-14
1314.94 5.1066e-14
1324.05 4.8993e-14
1336.31 4.4477e-14
1345.57 5.0481e-14
1354.9 4.888e-14
1364.29 4.4682e-14
1373.74 4.604e-14
1386.46 4.6252e-14
1396.07 4.0007e-14
1405.74 4.0844e-14
1415.49 4.3066e-14
1425.3 4.3265e-14
1435.18 4.3165e-14
1441.8 4.4785e-14
1448.46 4.5199e-14
1455.14 4.3967e-14
1465.23 4.1222e-14
1475.39 4.0938e-14
1485.61 4.1222e-14
1495.91 4.1508e-14
1506.28 3.964e-14
1513.23 3.6069e-14
1516.72 3.7943e-14
1523.72 3.6909e-14
1534.29 3.2669e-14
1544.92 3.4208e-14
1555.63 3.2594e-14
1566.41 3.3507e-14
1573.64 3.541e-14
1584.55 3.6571e-14
1595.53 3.7165e-14
1606.59 3.5986e-14
1614.01 3.582e-14
1625.2 3.4287e-14
1636.46 3.5903e-14
1644.02 3.6069e-14
1655.41 3.3817e-14
1666.89 3.6235e-14
1670.73 3.2819e-14
1678.44 3.6486e-14
1686.19 3.7336e-14
1693.97 3.5329e-14
1705.71 3.4051e-14
1713.59 3.2594e-14
1725.46 3.222e-14
1733.43 3.3895e-14
1745.44 3.3047e-14
1753.5 3.4604e-14
1765.66 3.2072e-14
1773.81 3.2669e-14
1786.1 3.2971e-14
1794.35 3.4445e-14
1806.78 3.413e-14
1815.12 3.1999e-14
1823.5 3.2295e-14
1836.14 3.127e-14
1844.62 2.8982e-14
1853.13 2.9116e-14
1865.98 2.9726e-14
1874.59 3.127e-14
1883.24 2.9116e-14
1896.3 2.8063e-14
1905.05 2.9318e-14
1913.84 2.8388e-14
1927.11 2.7678e-14
1936.0 2.8192e-14
1944.94 2.9318e-14
1953.92 2.7551e-14
1967.46 2.9521e-14
1976.54 3.007e-14
1985.67 2.865e-14
1994.83 2.7806e-14
2004.04 2.8323e-14
2013.29 2.7614e-14
2027.24 2.8323e-14
2036.6 2.7173e-14
2046.0 2.7806e-14
2055.45 2.6009e-14
2064.93 2.6371e-14
2074.47 2.8192e-14
2079.25 2.7235e-14
2084.04 2.787e-14
2093.66 2.6554e-14
2103.32 2.6615e-14
2113.03 2.68e-14
2122.79 2.6986e-14
2132.58 2.5417e-14
2147.37 2.5771e-14
2157.28 2.6432e-14
2167.23 2.5535e-14
2177.24 2.5359e-14
2187.29 2.5011e-14
2197.38 2.589e-14
2207.53 2.5184e-14
2212.62 2.4106e-14
2222.83 2.3503e-14
2233.09 2.4668e-14
2243.4 2.3776e-14
2253.75 2.2863e-14
2264.15 2.3128e-14
2274.61 2.3558e-14
2285.1 2.394e-14
2295.65 2.2655e-14
2306.25 2.2769e-14
2316.89 2.2005e-14
2327.59 1.8481e-14
2332.95 2.0692e-14
2343.72 1.9953e-14
2354.54 2.1242e-14
2365.41 1.9787e-14
2376.33 2.021e-14
2387.29 1.8826e-14
2392.8 1.9763e-14
2403.84 1.9145e-14
2414.94 1.9375e-14
2426.09 2.0297e-14
2437.28 1.9617e-14
2442.9 2.0405e-14
2454.18 2.0088e-14
2465.51 1.9867e-14
2476.89 1.9245e-14
2482.6 1.9428e-14
2494.06 1.8056e-14
2505.57 2.0036e-14
2511.34 1.8152e-14
2517.13 1.8451e-14
2522.94 1.7911e-14
2534.58 1.8044e-14
2546.28 1.7845e-14
2552.15 1.882e-14
2563.93 1.8358e-14
2575.76 1.91e-14
2587.65 1.8847e-14
2593.62 1.855e-14
2605.59 1.8012e-14
2617.62 1.7691e-14
2623.65 1.8318e-14
2635.76 1.8797e-14
2647.93 2.0058e-14
2654.03 2.0436e-14
2666.28 1.8819e-14
2672.43 1.9396e-14
2684.76 1.945e-14
2697.16 1.8499e-14
2703.37 1.8934e-14
2715.85 1.8008e-14
2722.11 1.7847e-14
2734.68 1.8484e-14
2747.3 1.6482e-14
2753.63 1.6831e-14
2766.34 1.7351e-14
2772.72 1.7924e-14
2785.52 1.693e-14
2791.94 1.4183e-14
2804.83 1.4928e-14
2817.77 1.7547e-14
2824.27 1.8253e-14
2837.31 1.7683e-14
2843.85 1.7166e-14
2856.97 1.6439e-14
2863.56 1.7824e-14
2876.78 1.7915e-14
2883.41 1.7756e-14
2896.72 1.7724e-14
2910.09 1.8915e-14
2930.26 1.8161e-14
2950.57 1.7803e-14
2971.02 1.7941e-14
2991.62 1.7873e-14
3012.35 1.7928e-14
3033.24 1.7861e-14
3047.24 1.7829e-14
3068.36 1.7803e-14
3089.63 1.7777e-14
3111.04 1.7751e-14
3132.61 1.7401e-14
3147.07 1.7371e-14
3168.88 1.7426e-14
3190.85 1.6579e-14
3212.97 1.698e-14
3227.8 1.6225e-14
3250.17 1.7123e-14
3272.7 1.7618e-14
3287.8 1.7426e-14
3310.59 1.7282e-14
3318.23 1.7208e-14
3325.88 1.7213e-14
3333.54 1.7619e-14
3341.23 1.6754e-14
3348.93 1.7999e-14
3356.65 1.7273e-14
3364.39 1.5542e-14
3372.14 1.569e-14
3379.92 1.7209e-14
3387.71 1.7135e-14
3395.52 1.6712e-14
3403.35 1.7585e-14
3411.19 1.6379e-14
3419.06 1.6688e-14
3426.94 1.6926e-14
3434.84 1.777e-14
3442.76 1.6399e-14
3450.69 1.6825e-14
3458.65 1.6561e-14
3466.62 1.6338e-14
3474.61 1.6879e-14
3482.62 1.6349e-14
3490.65 1.6928e-14
3498.7 1.5803e-14
3506.76 1.6784e-14
3514.84 1.5923e-14
3522.95 1.6794e-14
3531.07 1.6417e-14
3539.21 1.6921e-14
3547.37 1.74e-14
3555.54 1.7049e-14
3563.74 1.682e-14
3571.96 1.5739e-14
3580.19 1.5564e-14
3588.44 1.4297e-14
3596.71 1.5863e-14
3605.01 1.6463e-14
3613.32 1.544e-14
3621.65 1.5445e-14
3630.0 1.7739e-14
3638.36 1.6599e-14
3646.75 1.649e-14
3655.16 1.6725e-14
3663.58 1.7803e-14
3672.03 1.7007e-14
3680.49 1.6549e-14
3680.58 2.1058e-14
3683.32 1.7568e-14
3686.06 1.6467e-14
3688.81 1.915e-14
3691.55 1.4585e-14
3694.29 1.3603e-14
3697.04 1.2452e-14
3699.78 1.2303e-14
3702.52 1.5449e-14
3705.27 1.717e-14
3708.01 1.59e-14
3710.75 1.7628e-14
3713.49 1.7584e-14
3716.24 1.7503e-14
3718.98 2.2038e-14
3721.72 4.0302e-14
3724.47 7.2189e-14
3727.21 8.7633e-14
3729.95 7.6092e-14
3732.7 5.3119e-14
3735.44 3.0381e-14
3738.18 2.0798e-14
3740.93 2.0591e-14
3743.67 1.5575e-14
3746.41 1.4491e-14
3749.15 1.3242e-14
3751.9 1.8183e-14
3754.64 1.8803e-14
3757.38 1.8737e-14
3760.13 1.9985e-14
3762.87 2.0912e-14
3765.61 1.737e-14
3768.36 1.6998e-14
3771.1 1.6756e-14
3773.84 1.9755e-14
3776.59 1.9147e-14
3779.33 2.0778e-14
3782.07 1.9858e-14
3784.81 2.1644e-14
3787.56 2.2343e-14
3790.3 1.9803e-14
3793.04 2.0168e-14
3795.79 1.7189e-14
3798.53 1.5679e-14
3801.27 1.4775e-14
3804.02 1.8142e-14
3806.76 2.2066e-14
3809.5 2.1808e-14
3812.25 2.1515e-14
3814.99 2.2433e-14
3817.73 2.1591e-14
3820.47 2.3728e-14
3823.22 2.2354e-14
3825.96 1.9524e-14
3828.7 1.8803e-14
3831.45 1.8278e-14
3834.19 1.7245e-14
3836.93 1.5232e-14
3839.68 1.6888e-14
3842.42 1.8378e-14
3845.16 1.9997e-14
3847.91 2.3878e-14
3850.65 2.5177e-14
3853.39 2.3411e-14
3856.13 2.5112e-14
3858.88 2.5096e-14
3861.62 2.2977e-14
3864.36 2.4163e-14
3867.11 2.5932e-14
3869.85 2.5467e-14
3872.59 2.2323e-14
3875.34 2.3864e-14
3878.08 2.0866e-14
3880.82 2.0481e-14
3883.57 2.0229e-14
3886.31 1.9473e-14
3889.05 1.982e-14
3891.8 2.1211e-14
3894.54 1.6766e-14
3897.28 2.1939e-14
3900.02 2.2077e-14
3902.77 2.1638e-14
3905.51 2.417e-14
3908.25 2.5294e-14
3911.0 2.5394e-14
3913.74 2.5777e-14
3916.48 2.3989e-14
3919.23 2.3633e-14
3921.97 2.3167e-14
3924.71 2.1491e-14
3927.46 2.066e-14
3930.2 1.9184e-14
3932.94 1.7267e-14
3935.68 1.8662e-14
3938.43 1.9429e-14
3941.17 2.1521e-14
3943.91 2.173e-14
3946.66 2.0841e-14
3949.4 2.2052e-14
3952.14 2.3017e-14
3954.89 2.4373e-14
3957.63 2.1192e-14
3960.37 1.9529e-14
3963.12 1.8017e-14
3965.86 1.8275e-14
3968.6 1.7699e-14
3971.34 1.6545e-14
3974.09 1.8662e-14
3976.83 2.1865e-14
3979.57 2.2767e-14
3982.32 2.1723e-14
3985.06 2.4599e-14
3987.8 2.4689e-14
3990.55 2.3731e-14
3993.29 2.3571e-14
3996.03 2.4267e-14
3998.78 2.2287e-14
4001.52 2.494e-14
4004.26 2.5079e-14
4007.0 2.3774e-14
4009.75 2.5042e-14
4012.49 2.6169e-14
4015.23 2.4145e-14
4017.98 2.5792e-14
4020.72 2.6364e-14
4023.46 2.5436e-14
4026.21 2.5529e-14
4028.95 2.4595e-14
4031.69 2.2676e-14
4034.44 2.761e-14
4037.18 2.5829e-14
4039.92 2.6034e-14
4042.66 2.3973e-14
4045.41 2.4281e-14
4048.15 2.5247e-14
4050.89 2.4156e-14
4053.64 2.3922e-14
4056.38 2.4216e-14
4059.12 2.3188e-14
4061.87 2.5538e-14
4064.61 2.5192e-14
4067.35 2.5936e-14
4070.1 2.4769e-14
4072.84 2.5109e-14
4075.58 2.4941e-14
4078.32 2.2591e-14
4081.07 2.2784e-14
4083.81 2.242e-14
4086.55 2.3435e-14
4089.3 2.178e-14
4092.04 2.2561e-14
4094.78 2.2213e-14
4097.53 2.1574e-14
4100.27 2.2131e-14
4103.01 2.2994e-14
4105.76 2.1952e-14
4108.5 2.0302e-14
4111.24 2.0623e-14
4113.98 2.2803e-14
4116.73 2.3954e-14
4119.47 2.2531e-14
4122.21 2.2191e-14
4124.96 2.3385e-14
4127.7 2.4106e-14
4130.44 2.3242e-14
4133.19 2.4242e-14
4135.93 2.397e-14
4138.67 2.4115e-14
4141.42 2.299e-14
4144.16 2.3145e-14
4146.9 2.4228e-14
4149.64 2.5292e-14
4152.39 2.3519e-14
4155.13 2.1823e-14
4157.87 2.3328e-14
4160.62 2.3103e-14
4163.36 2.3039e-14
4166.1 2.4415e-14
4168.85 2.3769e-14
4171.59 2.2336e-14
4174.33 2.2673e-14
4177.08 2.3166e-14
4179.82 2.3542e-14
4182.56 2.3453e-14
4185.3 2.3126e-14
4188.05 2.2634e-14
4190.79 2.4417e-14
4193.53 2.48e-14
4196.28 2.4013e-14
4199.02 2.2913e-14
4201.76 2.3821e-14
4204.51 2.4294e-14
4207.25 2.543e-14
4209.99 2.5905e-14
4212.74 2.5139e-14
4215.48 2.4846e-14
4218.22 2.4748e-14
4220.96 2.5024e-14
4223.71 2.3921e-14
4226.45 2.2846e-14
4229.19 2.2428e-14
4231.94 2.3198e-14
4234.68 2.2996e-14
4237.42 2.3141e-14
4240.17 2.4361e-14
4242.91 2.3401e-14
4245.65 2.3014e-14
4248.4 2.3789e-14
4251.14 2.3399e-14
4253.88 2.2555e-14
4256.62 2.2335e-14
4259.37 2.2813e-14
4262.11 2.3365e-14
4264.85 2.3135e-14
4267.6 2.3534e-14
4270.34 2.1718e-14
4273.08 2.1292e-14
4275.83 2.2309e-14
4278.57 2.1685e-14
4281.31 2.21e-14
4284.06 2.2256e-14
4286.8 2.1956e-14
4289.54 2.2468e-14
4292.28 2.2813e-14
4295.03 2.1757e-14
4297.77 2.1441e-14
4300.51 2.0802e-14
4303.26 2.0902e-14
4306.0 2.053e-14
4308.74 2.0652e-14
4311.49 2.0383e-14
4314.23 2.1556e-14
4316.97 2.2362e-14
4319.72 2.2898e-14
4322.46 1.9798e-14
4325.2 1.9487e-14
4327.94 2.1093e-14
4330.69 2.1115e-14
4333.43 2.0687e-14
4336.17 2.3e-14
4338.92 2.5366e-14
4341.66 2.7919e-14
4344.4 2.3654e-14
4347.15 2.1703e-14
4349.89 2.0845e-14
4352.63 2.0801e-14
4355.38 2.0193e-14
4358.12 2.1781e-14
4360.86 2.2583e-14
4363.6 2.3558e-14
4366.35 2.3164e-14
4369.09 2.2216e-14
4371.83 2.2735e-14
4374.58 2.2515e-14
4377.32 2.1561e-14
4380.06 2.1816e-14
4382.81 2.2878e-14
4385.55 2.0414e-14
4388.29 2.138e-14
4391.04 2.134e-14
4393.78 2.3014e-14
4396.52 2.2408e-14
4399.26 2.2714e-14
4402.01 2.2896e-14
4404.75 2.1128e-14
4407.49 2.204e-14
4410.24 2.2115e-14
4412.98 2.1527e-14
4415.72 2.2501e-14
4418.47 2.2365e-14
4421.21 2.2169e-14
4423.95 2.2635e-14
4426.7 2.3022e-14
4429.44 2.3099e-14
4432.18 2.035e-14
4434.92 2.3663e-14
4437.67 2.2366e-14
4440.41 2.4017e-14
4443.15 2.3175e-14
4445.9 2.3829e-14
4448.64 2.242e-14
4451.38 2.3231e-14
4454.13 2.3293e-14
4456.87 2.2577e-14
4459.61 2.1709e-14
4462.36 2.1207e-14
4465.1 2.3103e-14
4467.84 2.2303e-14
4470.59 2.2875e-14
4473.33 2.3806e-14
4476.07 2.491e-14
4478.81 2.4195e-14
4481.56 2.2582e-14
4484.3 2.3188e-14
4487.04 2.3359e-14
4489.79 2.343e-14
4492.53 2.2847e-14
4495.27 2.3764e-14
4498.02 2.3876e-14
4500.76 2.3125e-14
4503.5 2.1439e-14
4506.25 2.4539e-14
4508.99 2.3562e-14
4511.73 2.5096e-14
4514.47 2.3553e-14
4517.22 2.3847e-14
4519.96 2.1755e-14
4522.7 2.3392e-14
4525.45 2.3716e-14
4528.19 2.1202e-14
4530.93 2.2607e-14
4533.68 2.1382e-14
4536.42 2.2239e-14
4539.16 2.2034e-14
4541.91 2.1426e-14
4544.65 2.3775e-14
4547.39 2.2261e-14
4550.13 2.1923e-14
4552.88 2.2603e-14
4555.62 2.108e-14
4558.36 2.3099e-14
4561.11 2.2581e-14
4563.85 2.2049e-14
4566.59 2.3099e-14
4569.34 2.1955e-14
4572.08 2.2486e-14
4574.82 2.4232e-14
4577.57 2.4052e-14
4580.31 2.4272e-14
4583.05 2.3001e-14
4585.79 2.3626e-14
4588.54 2.1581e-14
4591.28 2.2705e-14
4594.02 2.3085e-14
4596.77 2.2666e-14
4599.51 2.3464e-14
4602.25 2.1766e-14
4605.0 2.2199e-14
4607.74 2.2732e-14
4610.48 2.2769e-14
4613.23 2.3566e-14
4615.97 2.2002e-14
4618.71 2.3177e-14
4621.45 2.2736e-14
4624.2 2.3887e-14
4626.94 2.3546e-14
4629.68 2.3272e-14
4632.43 2.2871e-14
4635.17 2.2739e-14
4637.91 2.3195e-14
4640.66 2.382e-14
4643.4 2.2925e-14
4646.14 2.2608e-14
4648.89 2.2275e-14
4651.63 2.2582e-14
4654.37 2.3747e-14
4657.11 2.3483e-14
4659.86 2.256e-14
4662.6 2.2933e-14
4665.34 2.3479e-14
4668.09 2.2352e-14
4670.83 2.2938e-14
4673.57 2.2109e-14
4676.32 2.2465e-14
4679.06 2.2147e-14
4681.8 2.2713e-14
4684.55 2.3326e-14
4687.29 2.3218e-14
4690.03 2.3491e-14
4692.77 2.2983e-14
4695.52 2.2624e-14
4698.26 2.2858e-14
4701.0 2.2605e-14
4703.75 2.1761e-14
4706.49 2.2425e-14
4709.23 2.2497e-14
4711.98 2.2226e-14
4714.72 2.2247e-14
4717.46 2.2232e-14
4720.21 2.1368e-14
4722.95 2.1781e-14
4725.69 2.2439e-14
4728.43 2.1969e-14
4731.18 2.2465e-14
4733.92 2.0772e-14
4736.66 2.1575e-14
4739.41 2.2285e-14
4742.15 2.2133e-14
4744.89 2.2782e-14
4747.64 2.2149e-14
4750.38 2.0315e-14
4753.12 2.133e-14
4755.87 2.2218e-14
4758.61 2.2781e-14
4761.35 2.1849e-14
4764.09 2.1684e-14
4766.84 2.1656e-14
4769.58 2.1642e-14
4772.32 2.2048e-14
4775.07 2.2266e-14
4777.81 2.2023e-14
4780.55 2.1765e-14
4783.3 2.2097e-14
4786.04 2.234e-14
4788.78 2.1868e-14
4791.53 2.2219e-14
4794.27 2.3006e-14
4797.01 2.2555e-14
4799.75 2.2574e-14
4802.5 2.3226e-14
4805.24 2.2374e-14
4807.98 2.175e-14
4810.73 2.2306e-14
4813.47 2.1552e-14
4816.21 2.1718e-14
4818.96 2.1542e-14
4821.7 2.1811e-14
4824.44 2.2783e-14
4827.19 2.2233e-14
4829.93 2.2299e-14
4832.67 2.2122e-14
4835.41 2.1986e-14
4838.16 2.1154e-14
4840.9 2.1641e-14
4843.64 2.1616e-14
4846.39 2.0681e-14
4849.13 2.025e-14
4851.87 1.9791e-14
4854.62 2.2979e-14
4857.36 2.8447e-14
4860.1 3.4853e-14
4862.85 3.582e-14
4865.59 3.1078e-14
4868.33 2.4054e-14
4871.08 2.0714e-14
4873.82 1.9569e-14
4876.56 1.9647e-14
4879.3 2.0248e-14
4882.05 1.936e-14
4884.79 1.9987e-14
4887.53 2.1323e-14
4890.28 2.1591e-14
4893.02 2.088e-14
4895.76 2.1701e-14
4898.51 2.0955e-14
4901.25 2.2352e-14
4903.99 2.109e-14
4906.74 2.068e-14
4909.48 2.1672e-14
4912.22 2.1942e-14
4914.96 2.1508e-14
4917.71 2.0376e-14
4920.45 2.1091e-14
4923.19 2.0846e-14
4925.94 2.0829e-14
4928.68 2.1076e-14
4931.42 2.1897e-14
4934.17 2.1373e-14
4936.91 2.1212e-14
4939.65 2.0734e-14
4942.4 2.138e-14
4945.14 2.2029e-14
4947.88 2.1747e-14
4950.62 2.1598e-14
4953.37 2.3733e-14
4956.11 2.8578e-14
4958.85 3.1759e-14
4961.6 3.0558e-14
4964.34 2.6709e-14
4967.08 2.3305e-14
4969.83 2.095e-14
4972.57 2.0845e-14
4975.31 2.148e-14
4978.06 2.0399e-14
4980.8 2.0294e-14
4983.54 1.9435e-14
4986.28 1.9633e-14
4989.03 2.1266e-14
4991.77 2.0662e-14
4994.51 2.1021e-14
4997.26 2.271e-14
5000.0 2.6416e-14
5002.74 3.7254e-14
5005.49 5.0189e-14
5008.23 5.3395e-14
5010.97 4.2842e-14
5013.72 3.0225e-14
5016.46 2.2955e-14
5019.2 2.0314e-14
5021.94 1.9464e-14
5024.69 1.9272e-14
5027.43 2.0788e-14
5030.17 2.0907e-14
5032.92 2.1272e-14
5035.66 2.0568e-14
5038.4 1.9846e-14
5041.15 1.9203e-14
5043.89 2.1022e-14
5046.63 2.1661e-14
5049.38 2.1004e-14
5052.12 2.1211e-14
5054.86 2.1394e-14
5057.6 2.104e-14
5060.35 2.1303e-14
5063.09 2.1223e-14
5065.83 2.0813e-14
5068.58 2.1285e-14
5071.32 2.077e-14
5074.06 1.9579e-14
5076.81 1.9163e-14
5079.55 1.902e-14
5082.29 1.9527e-14
5085.04 2.0037e-14
5087.78 2.0239e-14
5090.52 2.1002e-14
5093.26 2.1608e-14
5096.01 2.0303e-14
5098.75 1.961e-14
5101.49 2.0305e-14
5104.24 2.0052e-14
5106.98 2.0073e-14
5109.72 2.0274e-14
5112.47 2.0281e-14
5115.21 1.9761e-14
5117.95 2.0258e-14
5120.7 1.9858e-14
5123.44 1.9133e-14
5126.18 1.9485e-14
5128.92 2.0023e-14
5131.67 2.0168e-14
5134.41 2.0314e-14
5137.15 2.0065e-14
5139.9 2.0001e-14
5142.64 1.915e-14
5145.38 1.8923e-14
5148.13 1.9449e-14
5150.87 1.8928e-14
5153.61 1.9064e-14
5156.36 2.0049e-14
5159.1 1.9983e-14
5161.84 1.9681e-14
5164.58 1.9379e-14
5167.33 1.8755e-14
5170.07 1.7632e-14
5172.81 1.8106e-14
5175.56 1.864e-14
5178.3 1.9526e-14
5181.04 2.0312e-14
5183.79 1.9708e-14
5186.53 1.9036e-14
5189.27 1.8906e-14
5192.02 1.8468e-14
5194.76 1.9433e-14
5197.5 1.9843e-14
5200.24 2.0492e-14
5202.99 2.0165e-14
5205.73 1.9606e-14
5208.47 1.8824e-14
5211.22 1.8547e-14
5213.96 1.9171e-14
5216.7 1.9901e-14
5219.45 1.9375e-14
5222.19 1.9741e-14
5224.93 1.8982e-14
5227.68 1.9469e-14
5230.42 1.9143e-14
5233.16 1.8461e-14
5235.9 1.9391e-14
5238.65 1.973e-14
5241.39 2.0398e-14
5244.13 2.0794e-14
5246.88 2.0268e-14
5249.62 1.9595e-14
5252.36 1.9126e-14
5255.11 1.924e-14
5257.85 1.9763e-14
5260.59 1.9882e-14
5263.34 1.9444e-14
5266.08 1.8848e-14
5268.82 1.8956e-14
5271.56 1.9155e-14
5274.31 1.8778e-14
5277.05 1.9009e-14
5279.79 1.958e-14
5282.54 2.0331e-14
5285.28 1.9977e-14
5288.02 2.0286e-14
5290.77 2.0154e-14
5293.51 1.9454e-14
5296.25 1.8778e-14
5299.0 1.9199e-14
5301.74 1.9803e-14
5304.48 2.0808e-14
5307.23 2.0721e-14
5309.97 2.0016e-14
5312.71 2.028e-14
5315.45 2.0234e-14
5318.2 1.9939e-14
5320.94 1.9603e-14
5323.68 1.9603e-14
5326.43 1.9208e-14
5329.17 1.909e-14
5331.91 1.9443e-14
5334.66 1.9599e-14
5337.4 2.0406e-14
5340.14 2.0019e-14
5342.89 1.986e-14
5345.63 2.015e-14
5348.37 1.9794e-14
5351.11 2.04e-14
5353.86 2.0345e-14
5356.6 2.1036e-14
5359.34 2.1153e-14
5362.09 2.0202e-14
5364.83 1.9822e-14
5367.57 1.9276e-14
5370.32 1.9092e-14
5373.06 1.9245e-14
5375.8 1.9764e-14
5378.55 2.0232e-14
5381.29 1.9889e-14
5384.03 1.9717e-14
5386.77 1.9671e-14
5389.52 1.9842e-14
5392.26 1.9402e-14
5395.0 1.8614e-14
5397.75 1.9116e-14
5400.49 1.9319e-14
5403.23 1.9537e-14
5405.98 1.9245e-14
5408.72 1.8749e-14
5411.46 1.8774e-14
5414.21 1.8979e-14
5416.95 1.9648e-14
5419.69 1.89e-14
5422.43 1.9182e-14
5425.18 1.984e-14
5427.92 1.9567e-14
5430.66 1.9529e-14
5433.41 1.9263e-14
5436.15 1.9507e-14
5438.89 1.9444e-14
5441.64 1.9339e-14
5444.38 1.9603e-14
5447.12 1.8898e-14
5449.87 1.8528e-14
5452.61 1.9323e-14
5455.35 1.9338e-14
5458.09 1.91e-14
5460.84 1.922e-14
5463.58 1.9218e-14
5466.32 1.9362e-14
5469.07 1.9936e-14
5471.81 1.9258e-14
5474.55 1.841e-14
5477.3 1.8824e-14
5480.04 1.9573e-14
5482.78 1.9662e-14
5485.53 1.9415e-14
5488.27 1.9657e-14
5491.01 2.0203e-14
5493.75 2.0161e-14
5496.5 1.9623e-14
5499.24 1.8942e-14
5501.98 1.9604e-14
5504.73 1.9602e-14
5507.47 1.9766e-14
5510.21 1.9319e-14
5512.96 1.9249e-14
5515.7 2.0292e-14
5518.44 1.9954e-14
5521.19 1.9737e-14
5523.93 1.9717e-14
5526.67 1.9358e-14
5529.41 1.9259e-14
5532.16 1.8699e-14
5534.9 1.915e-14
5537.64 1.8924e-14
5540.39 1.8923e-14
5543.13 1.9456e-14
5545.87 1.9089e-14
5548.62 2.0299e-14
5551.36 1.9227e-14
5554.1 1.9958e-14
5556.85 1.9823e-14
5559.59 1.955e-14
5562.33 1.8788e-14
5565.07 1.8406e-14
5567.82 1.8419e-14
5570.56 2.0047e-14
5573.3 1.9369e-14
5576.05 1.9906e-14
5578.79 1.9128e-14
5581.53 2.0458e-14
5584.28 1.7685e-14
5587.02 1.8468e-14
5589.76 1.8085e-14
5592.51 1.9599e-14
5595.25 1.8523e-14
5597.99 1.8446e-14
5600.73 1.8298e-14
5603.48 1.99e-14
5606.22 2.0007e-14
5608.96 1.9538e-14
5611.71 1.9801e-14
5614.45 1.9515e-14
5617.19 1.8777e-14
5619.94 1.8985e-14
5622.68 1.8864e-14
5625.42 1.8704e-14
5628.17 1.8679e-14
5630.91 1.9236e-14
5633.65 1.9354e-14
5636.39 1.8667e-14
5639.14 1.8848e-14
5641.88 1.8474e-14
5644.62 1.9066e-14
5647.37 1.9905e-14
5650.11 1.8694e-14
5652.85 1.8365e-14
5655.6 1.8617e-14
5658.34 1.9258e-14
5661.08 1.8418e-14
5663.83 1.7735e-14
5666.57 1.8318e-14
5669.31 1.8864e-14
5672.05 1.9883e-14
5674.8 1.9604e-14
5677.54 1.8665e-14
5680.28 1.8959e-14
5683.03 1.981e-14
5685.77 1.9343e-14
5688.51 1.8638e-14
5691.26 1.8339e-14
5694.0 1.938e-14
5696.74 1.9574e-14
5699.49 1.9361e-14
5702.23 1.8905e-14
5704.97 1.8887e-14
5707.72 1.9195e-14
5710.46 1.8302e-14
5713.2 1.8479e-14
5715.94 1.9099e-14
5718.69 1.8554e-14
5721.43 1.8963e-14
5724.17 1.9044e-14
5726.92 1.8762e-14
5729.66 1.8916e-14
5732.4 1.9592e-14
5735.15 1.9544e-14
5737.89 2.0438e-14
5740.63 1.9158e-14
5743.38 1.8915e-14
5746.12 1.9193e-14
5748.86 2.0089e-14
5751.6 1.865e-14
5754.35 1.8681e-14
5757.09 1.8401e-14
5759.83 1.8395e-14
5762.58 1.9147e-14
5765.32 1.912e-14
5768.06 1.9166e-14
5770.81 1.9182e-14
5773.55 1.8749e-14
5776.29 1.9099e-14
5779.04 1.81e-14
5781.78 1.8419e-14
5784.52 1.8456e-14
5787.26 1.7712e-14
5790.01 1.6882e-14
5792.75 1.7733e-14
5795.49 1.9043e-14
5798.24 1.9429e-14
5800.98 1.9071e-14
5803.72 1.8585e-14
5806.47 1.9464e-14
5809.21 1.9614e-14
5811.95 1.7752e-14
5814.7 1.9005e-14
5817.44 1.8959e-14
5820.18 1.9205e-14
5822.92 1.9934e-14
5825.67 1.9456e-14
5828.41 1.8617e-14
5831.15 1.8925e-14
5833.9 1.8141e-14
5836.64 1.877e-14
5839.38 1.9345e-14
5842.13 2.0581e-14
5844.87 1.8586e-14
5847.61 1.7849e-14
5850.36 1.8608e-14
5853.1 1.8556e-14
5855.84 1.8666e-14
5858.58 1.8451e-14
5861.33 1.743e-14
5864.07 1.8638e-14
5866.81 1.8787e-14
5869.56 1.7285e-14
5872.3 1.8949e-14
5875.04 2.1381e-14
5877.79 2.269e-14
5880.53 2.0055e-14
5883.27 1.8898e-14
5886.02 1.8048e-14
5888.76 1.7878e-14
5891.5 1.6895e-14
5894.24 1.5929e-14
5896.99 1.7223e-14
5899.73 1.7546e-14
5902.47 1.8794e-14
5905.22 1.7545e-14
5907.96 1.7179e-14
5910.7 1.8405e-14
5913.45 1.8419e-14
5916.19 1.6958e-14
5918.93 1.7134e-14
5921.68 1.8066e-14
5924.42 1.8096e-14
5927.16 1.8425e-14
5929.9 1.7817e-14
5932.65 1.8335e-14
5935.39 1.8865e-14
5938.13 1.8761e-14
5940.88 1.7559e-14
5943.62 1.7446e-14
5946.36 1.7551e-14
5949.11 1.7263e-14
5951.85 1.82e-14
5954.59 1.8255e-14
5957.34 1.8088e-14
5960.08 1.8487e-14
5962.82 1.8117e-14
5965.56 1.848e-14
5968.31 1.8387e-14
5971.05 1.8864e-14
5973.79 1.9417e-14
5976.54 1.8448e-14
5979.28 1.8039e-14
5982.02 1.7321e-14
5984.77 1.675e-14
5987.51 1.8191e-14
5990.25 1.8827e-14
5993.0 1.9359e-14
5995.74 1.8084e-14
5998.48 1.7869e-14
6001.22 1.7652e-14
6003.97 1.727e-14
6006.71 1.7888e-14
6009.45 1.7428e-14
6012.2 1.657e-14
6014.94 1.6937e-14
6017.68 1.6868e-14
6020.43 1.7304e-14
6023.17 1.8236e-14
6025.91 1.7978e-14
6028.66 1.8185e-14
6031.4 1.83e-14
6034.14 1.8418e-14
6036.88 1.8207e-14
6039.63 1.8106e-14
6042.37 1.8354e-14
6045.11 1.8475e-14
6047.86 1.7771e-14
6050.6 1.7307e-14
6053.34 1.8014e-14
6056.09 1.764e-14
6058.83 1.7512e-14
6061.57 1.7659e-14
6064.32 1.6514e-14
6067.06 1.7178e-14
6069.8 1.7662e-14
6072.54 1.7989e-14
6075.29 1.7569e-14
6078.03 1.7585e-14
6080.77 1.7287e-14
6083.52 1.767e-14
6086.26 1.7295e-14
6089.0 1.7746e-14
6091.75 1.6859e-14
6094.49 1.793e-14
6097.23 1.7903e-14
6099.98 1.7683e-14
6102.72 1.6596e-14
6105.46 1.6411e-14
6108.2 1.721e-14
6110.95 1.7807e-14
6113.69 1.7621e-14
6116.43 1.7344e-14
6119.18 1.7361e-14
6121.92 1.789e-14
6124.66 1.6247e-14
6127.41 1.6615e-14
6130.15 1.7208e-14
6132.89 1.6736e-14
6135.64 1.7144e-14
6138.38 1.7151e-14
6141.12 1.6885e-14
6143.87 1.7314e-14
6146.61 1.7195e-14
6149.35 1.7353e-14
6152.09 1.7824e-14
6154.84 1.6736e-14
6157.58 1.6881e-14
6160.32 1.5836e-14
6163.07 1.5975e-14
6165.81 1.6606e-14
6168.55 1.6564e-14
6171.3 1.6954e-14
6174.04 1.596e-14
6176.78 1.7107e-14
6179.53 1.7144e-14
6182.27 1.6373e-14
6185.01 1.7769e-14
6187.75 1.6979e-14
6190.5 1.6114e-14
6193.24 1.6959e-14
6195.98 1.5724e-14
6198.73 1.6394e-14
6201.47 1.7452e-14
6204.21 1.7736e-14
6206.96 1.6143e-14
6209.7 1.6103e-14
6212.44 1.6381e-14
6215.19 1.6627e-14
6217.93 1.698e-14
6220.67 1.6297e-14
6223.41 1.5844e-14
6226.16 1.6889e-14
6228.9 1.7218e-14
6231.64 1.6478e-14
6234.39 1.6049e-14
6237.13 1.6507e-14
6239.87 1.5811e-14
6242.62 1.647e-14
6245.36 1.6009e-14
6248.1 1.6477e-14
6250.85 1.618e-14
6253.59 1.6845e-14
6256.33 1.6148e-14
6259.07 1.6842e-14
6261.82 1.5589e-14
6264.56 1.7029e-14
6267.3 1.6215e-14
6270.05 1.6334e-14
6272.79 1.8235e-14
6275.53 1.7425e-14
6278.28 1.6436e-14
6281.02 1.5793e-14
6283.76 1.5311e-14
6286.51 1.5491e-14
6289.25 1.507e-14
6291.99 1.485e-14
6294.73 1.6402e-14
6297.48 1.8561e-14
6300.22 1.8988e-14
6302.96 1.8889e-14
6305.71 1.8352e-14
6308.45 1.7625e-14
6311.19 1.6918e-14
6313.94 1.6613e-14
6316.68 1.5776e-14
6319.42 1.5851e-14
6322.17 1.7141e-14
6324.91 1.718e-14
6327.65 1.6973e-14
6330.39 1.704e-14
6333.14 1.6586e-14
6335.88 1.6628e-14
6338.62 1.6319e-14
6341.37 1.7047e-14
6344.11 1.7138e-14
6346.85 1.724e-14
6349.6 1.71e-14
6352.34 1.5498e-14
6355.08 1.8278e-14
6357.83 1.6844e-14
6360.57 1.5698e-14
6363.31 1.712e-14
6366.05 1.7426e-14
6368.8 1.6858e-14
6371.54 1.7162e-14
6374.28 1.6233e-14
6377.03 1.6923e-14
6379.77 1.6744e-14
6382.51 1.7135e-14
6385.26 1.7115e-14
6388.0 1.7086e-14
6390.74 1.7201e-14
6393.49 1.7087e-14
6396.23 1.6355e-14
6398.97 1.7682e-14
6401.71 1.6615e-14
6404.46 1.7377e-14
6407.2 1.6393e-14
6409.94 1.6358e-14
6412.69 1.7156e-14
6415.43 1.7164e-14
6418.17 1.6141e-14
6420.92 1.6406e-14
6423.66 1.6302e-14
6426.4 1.7571e-14
6429.15 1.623e-14
6431.89 1.8658e-14
6434.63 1.7956e-14
6437.37 1.8441e-14
6440.12 1.9208e-14
6442.86 1.7915e-14
6445.6 1.8032e-14
6448.35 1.5539e-14
6451.09 1.6683e-14
6453.83 1.6224e-14
6456.58 1.5368e-14
6459.32 1.6884e-14
6462.06 1.7352e-14
6464.81 1.7194e-14
6467.55 1.6521e-14
6470.29 1.7175e-14
6473.03 1.7286e-14
6475.78 1.7869e-14
6478.52 1.7508e-14
6481.26 1.6262e-14
6484.01 1.6075e-14
6486.75 1.5792e-14
6489.49 1.5484e-14
6492.24 1.5817e-14
6494.98 1.6323e-14
6497.72 1.5812e-14
6500.47 1.537e-14
6503.21 1.6225e-14
6505.95 1.5918e-14
6508.69 1.5668e-14
6511.44 1.6315e-14
6514.18 1.6096e-14
6516.92 1.628e-14
6519.67 1.5744e-14
6522.41 1.5778e-14
6525.15 1.625e-14
6527.9 1.6258e-14
6530.64 1.6844e-14
6533.38 1.7776e-14
6536.13 1.6984e-14
6538.87 1.7094e-14
6541.61 1.6877e-14
6544.35 1.8033e-14
6547.1 2.0419e-14
6549.84 2.0367e-14
6552.58 2.0381e-14
6555.33 2.4474e-14
6558.07 4.009e-14
6560.81 6.8087e-14
6563.56 8.4856e-14
6566.3 7.0868e-14
6569.04 4.0534e-14
6571.79 2.1806e-14
6574.53 1.7114e-14
6577.27 1.9276e-14
6580.02 2.2115e-14
6582.76 2.6528e-14
6585.5 2.8109e-14
6588.24 2.3319e-14
6590.99 1.8059e-14
6593.73 1.6354e-14
6596.47 1.5657e-14
6599.22 1.5943e-14
6601.96 1.7778e-14
6604.7 1.6881e-14
6607.45 1.5896e-14
6610.19 1.5936e-14
6612.93 1.626e-14
6615.68 1.5628e-14
6618.42 1.7081e-14
6621.16 1.6814e-14
6623.9 1.6642e-14
6626.65 1.6114e-14
6629.39 1.6584e-14
6632.13 1.6709e-14
6634.88 1.6046e-14
6637.62 1.592e-14
6640.36 1.5923e-14
6643.11 1.5615e-14
6645.85 1.5357e-14
6648.59 1.6321e-14
6651.34 1.5813e-14
6654.08 1.5836e-14
6656.82 1.6374e-14
6659.56 1.6043e-14
6662.31 1.5559e-14
6665.05 1.6189e-14
6667.79 1.6611e-14
6670.54 1.649e-14
6673.28 1.6563e-14
6676.02 1.6054e-14
6678.77 1.5935e-14
6681.51 1.5608e-14
6684.25 1.5935e-14
6687.0 1.6453e-14
6689.74 1.6446e-14
6692.48 1.5579e-14
6695.22 1.6062e-14
6697.97 1.543e-14
6700.71 1.6376e-14
6703.45 1.6709e-14
6706.2 1.618e-14
6708.94 1.6763e-14
6711.68 2.1343e-14
6714.43 2.7427e-14
6717.17 2.9459e-14
6719.91 2.6813e-14
6722.66 2.2233e-14
6725.4 2.0521e-14
6728.14 2.3815e-14
6730.88 2.7695e-14
6733.63 2.5558e-14
6736.37 2.1419e-14
6739.11 1.6287e-14
6741.86 1.5293e-14
6744.6 1.5445e-14
6747.34 1.5121e-14
6750.09 1.6045e-14
6752.83 1.4434e-14
6755.57 1.5402e-14
6758.32 1.6347e-14
6761.06 1.4862e-14
6763.8 1.5386e-14
6766.54 1.4624e-14
6769.29 1.5268e-14
6772.03 1.6109e-14
6774.77 1.5117e-14
6777.52 1.4894e-14
6780.26 1.4505e-14
6783.0 1.4509e-14
6785.75 1.5987e-14
6788.49 1.6335e-14
6791.23 1.4391e-14
6793.98 1.5213e-14
6796.72 1.4632e-14
6799.46 1.4963e-14
6802.2 1.4886e-14
6804.95 1.4719e-14
6807.69 1.5138e-14
6810.43 1.6148e-14
6821.91 1.5453e-14
6837.64 1.5488e-14
6853.4 1.5487e-14
6869.2 1.4926e-14
6885.03 1.5168e-14
6900.9 1.5167e-14
6916.82 1.5166e-14
6932.76 1.5096e-14
6948.74 1.527e-14
6964.76 1.5199e-14
6980.81 1.5304e-14
6996.91 1.5059e-14
7013.03 1.4749e-14
7029.2 1.4851e-14
7045.41 1.4884e-14
7061.65 1.4883e-14
7077.93 1.4746e-14
7094.24 1.451e-14
7110.6 1.4476e-14
7126.99 1.4342e-14
7143.42 1.4375e-14
7159.88 1.4374e-14
7176.39 1.4111e-14
7192.94 1.3229e-14
7209.51 1.3631e-14
7226.13 1.4338e-14
7242.79 1.3915e-14
7259.49 1.3786e-14
7276.22 1.4536e-14
7293.0 1.427e-14
7309.81 1.4171e-14
7326.66 1.4334e-14
7343.55 1.4701e-14
7360.48 1.4267e-14
7377.45 1.4598e-14
7394.45 1.407e-14
7411.5 1.4698e-14
7428.58 1.4101e-14
7445.71 1.4462e-14
7462.87 1.4628e-14
7480.08 1.4394e-14
7497.32 1.4393e-14
7514.61 1.4359e-14
7531.93 1.4326e-14
7549.29 1.4591e-14
7566.69 1.4291e-14
7584.14 1.4389e-14
7601.62 1.3997e-14
7619.14 1.3868e-14
7636.71 1.4125e-14
7654.31 1.3898e-14
7671.95 1.291e-14
7689.64 1.3456e-14
7707.37 1.2968e-14
7725.13 1.3239e-14
7742.95 1.3516e-14
7760.79 1.3238e-14
7778.68 1.3086e-14
7796.61 1.2995e-14
7814.59 1.3266e-14
7832.6 1.3481e-14
7850.66 1.3419e-14
7868.76 1.348e-14
7886.9 1.3203e-14
7905.08 1.2931e-14
7923.3 1.2753e-14
7941.57 1.2694e-14
7959.87 1.284e-14
7978.22 1.2958e-14
7996.61 1.2839e-14
8015.05 1.2987e-14
8033.52 1.2661e-14
8052.04 1.3015e-14
8070.6 1.3165e-14
8089.21 1.2806e-14
8107.86 1.2717e-14
8126.55 1.2923e-14
8145.28 1.2922e-14
8164.06 1.2627e-14
8182.88 1.307e-14
8201.74 1.2254e-14
8220.65 1.2684e-14
8239.6 1.1594e-14
8258.59 1.3128e-14
8277.63 1.3127e-14
8296.72 1.2138e-14
8315.84 1.2221e-14
8335.01 1.2277e-14
8354.23 1.2447e-14
8373.48 1.2276e-14
8392.78 1.2051e-14
8412.13 1.2474e-14
8431.52 1.2359e-14
8450.96 1.2132e-14
8470.44 1.2301e-14
8489.97 1.2131e-14
8509.54 1.0638e-14
8529.16 1.2046e-14
8548.82 9.6789e-15
8568.53 1.2073e-14
8588.28 1.2156e-14
8608.08 1.1449e-14
8627.92 1.196e-14
8647.81 1.2042e-14
8667.74 1.0536e-14
8687.73 1.1367e-14
8707.75 1.1498e-14
8727.82 1.1792e-14
8747.95 1.1603e-14
8768.11 1.1656e-14
8788.32 1.179e-14
8808.59 1.1926e-14
8828.89 1.1789e-14
8849.24 1.152e-14
8869.64 1.0603e-14
8890.09 1.1127e-14
8910.58 1.1386e-14
8931.12 1.1359e-14
8951.71 1.1203e-14
8972.35 1.0649e-14
8993.03 1.1305e-14
9013.76 1.0574e-14
9034.54 1.0262e-14
9055.37 1.1835e-14
9076.24 1.1592e-14
9097.17 1.0236e-14
9118.14 1.0917e-14
9139.15 1.0594e-14
9160.23 1.0841e-14
9181.34 1.0448e-14
9202.5 1.094e-14
9223.72 1.0399e-14
9244.98 1.047e-14
9266.29 1.0664e-14
9287.66 1.0541e-14
9309.07 9.9052e-15
9330.52 1.1037e-14
9352.03 1.0985e-14
9373.59 1.0859e-14
9395.2 1.0933e-14
9416.86 1.0733e-14
9438.57 1.0932e-14
9460.33 1.0806e-14
9482.13 1.088e-14
9503.99 1.0681e-14
9525.9 1.0583e-14
9547.86 1.0129e-14
9569.87 1.0533e-14
9591.93 1.0703e-14
9614.04 1.0629e-14
9636.2 1.0628e-14
9658.42 1.053e-14
9680.68 1.0481e-14
9703.0 1.0432e-14
9725.37 1.0359e-14
9747.79 1.0287e-14
9770.26 1.031e-14
9792.78 1.0192e-14
9815.36 1.0309e-14
9837.98 1.0237e-14
9860.66 1.0237e-14
9883.39 1.0119e-14
9906.18 1.0072e-14
9929.01 1.0094e-14
9951.9 1.007e-14
9974.84 1.0047e-14
9997.84 9.9998e-15
10020.88 9.8392e-15
10067.14 9.6361e-15
10113.61 9.8139e-15
10183.71 9.6996e-15
10230.72 9.676e-15
10277.94 9.6302e-15
10301.63 9.5632e-15
10493.15 9.191e-15
10688.24 8.7525e-15
10912.04 8.2819e-15
11089.35 8.0192e-15
11295.51 7.747e-15
11505.51 7.5881e-15
11692.46 7.3305e-15
11909.85 7.0491e-15
12103.37 6.8412e-15
12300.03 6.6701e-15
12499.89 6.4585e-15
12702.99 6.268e-15
12909.4 6.0832e-15
13088.99 5.9447e-15
13301.67 5.7429e-15
13486.71 5.6122e-15
13705.85 5.4718e-15
13896.52 5.2861e-15
14089.84 5.0831e-15
14285.85 4.9789e-15
14484.59 4.956e-15
14686.09 4.7988e-15
14890.38 4.7988e-15
15097.53 4.7658e-15
15307.56 4.7878e-15
15484.82 4.7329e-15
15700.23 4.6252e-15
15882.04 4.4579e-15
16102.98 4.4579e-15
16289.43 4.417e-15
16516.04 4.3165e-15
16707.29 4.2573e-15
16900.76 4.1508e-15
17096.46 4.0563e-15
17294.42 3.8827e-15
17494.68 3.7769e-15
17697.27 3.6319e-15
17902.19 3.5005e-15
18109.48 3.3353e-15
18319.18 3.2519e-15
18488.69 3.1487e-15
18702.77 3.007e-15
18919.34 2.9318e-15
19094.41 2.865e-15
19315.51 2.7678e-15
19494.22 2.6493e-15
19719.96 2.5771e-15
19902.44 2.4954e-15
20086.58 2.4442e-15
20319.18 2.3612e-15
20507.2 2.3234e-15
20696.93 2.2601e-15
20888.45 2.2036e-15
21081.71 2.1584e-15
21276.79 2.1044e-15
21523.17 2.0518e-15
21722.3 1.9776e-15
21923.31 1.9459e-15
22075.26 1.8886e-15
22279.53 1.8371e-15
22485.69 1.7911e-15
22693.73 1.7423e-15
22903.73 1.5745e-15
23115.64 1.56e-15
23275.88 1.3776e-15
23491.26 1.3036e-15
23708.61 1.3156e-15
23872.96 1.2138e-15
24093.84 1.1753e-15
24316.79 1.1618e-15
24485.33 1.0868e-15
24711.9 1.0694e-15
24883.18 9.2711e-16
25113.44 9.1439e-16
25287.5 9.1439e-16
25521.49 9.0184e-16
25698.39 9.1019e-16
25876.53 8.8947e-16
26115.98 8.8335e-16
26296.99 8.5927e-16
26479.26 8.514e-16
26724.28 8.3202e-16
26909.54 8.206e-16
27096.06 8.0748e-16
27283.86 7.9092e-16
27473.0 7.7648e-16
27727.19 7.6056e-16
27919.4 7.5012e-16
28112.92 7.3474e-16
28307.8 7.2133e-16
28504.01 7.0653e-16
28701.61 6.9045e-16
28900.54 6.8098e-16
29100.89 6.6855e-16
29302.59 6.5483e-16
29505.73 6.414e-16
29710.23 6.3115e-16
29916.19 6.1678e-16
30123.55 6.0692e-16
30332.34 5.931e-16
30472.37 5.8632e-16
30683.58 5.7694e-16
30896.28 5.6772e-16
31110.43 5.5864e-16
31326.1 5.4971e-16
31470.68 5.4092e-16
31688.81 5.3227e-16
31908.49 5.2618e-16
32129.65 5.1896e-16
32277.98 5.1538e-16
32501.7 5.1896e-16
32726.98 5.4092e-16
32878.06 6.1254e-16
33105.94 6.0413e-16
33335.44 5.1302e-16
33489.3 4.7548e-16
33721.42 4.5513e-16
33877.1 4.417e-16
34111.91 4.2967e-16
34269.35 4.2085e-16
34506.91 4.1222e-16
34666.18 4.0377e-16
34906.49 3.9549e-16
35067.6 3.8827e-16
35310.66 3.7943e-16
35473.68 3.725e-16
35719.55 3.6571e-16
35884.45 3.5821e-16
36133.17 3.5248e-16
36299.94 3.4525e-16
36467.52 3.3817e-16
36720.29 3.32e-16
36889.77 3.2444e-16
37060.07 3.1852e-16
37316.94 3.1342e-16
37489.17 3.0558e-16
37662.25 3.0209e-16
37923.29 2.9657e-16
38098.32 2.9116e-16
38274.21 2.8585e-16
38539.49 2.8128e-16
38717.41 2.7551e-16
38896.11 2.7048e-16
39075.63 2.6554e-16
39255.98 2.613e-16
39528.12 2.5594e-16
39710.56 2.5184e-16
39893.88 2.4668e-16
40078.01 2.4273e-16
40262.99 2.3885e-16
40542.1 2.3395e-16
40729.23 2.3074e-16
40917.21 2.2706e-16
41106.06 2.2394e-16
41295.83 2.2036e-16
41486.43 2.1634e-16
41677.91 2.1288e-16
41870.32 2.0947e-16
42063.56 2.0613e-16
42257.71 2.0377e-16
42452.79 2.0005e-16
42747.04 1.973e-16
42944.34 1.9017e-16
43142.59 1.8371e-16
43341.72 1.8329e-16
43541.76 1.7666e-16
43742.77 1.7303e-16
43944.66 1.7027e-16
44147.49 1.6487e-16
44249.25 1.6298e-16
44453.53 1.6037e-16
44658.7 1.56e-16
44864.82 1.5564e-16
45071.95 1.528e-16
45279.97 1.4932e-16
45488.96 1.4864e-16
45698.91 1.4694e-16
45909.88 1.4293e-16
46121.78 1.4293e-16
46334.65 1.4065e-16
46548.56 1.3872e-16
46655.86 1.3776e-16
46871.19 1.3619e-16
47087.53 1.3401e-16
47304.91 1.337e-16
47523.24 1.3156e-16
47742.59 1.3006e-16
47852.69 1.2886e-16
48073.55 1.2651e-16
48295.43 1.2651e-16
48518.34 1.2478e-16
48742.32 1.2306e-16
48854.68 1.2166e-16
49080.17 1.2026e-16
49306.69 1.1916e-16
49534.32 1.178e-16
49648.5 1.1699e-16
49877.65 1.1566e-16
50107.91 1.1544e-16
50339.18 1.1522e-16
50455.22 1.1405e-16
50688.09 1.141e-16
50804.93 1.1398e-16
50922.1 1.1387e-16
51039.47 1.135e-16
51157.13 1.1339e-16
51275.04 1.1301e-16
51393.24 1.129e-16
51511.7 1.1279e-16
51630.5 1.1293e-16
51749.51 1.1308e-16
51868.8 1.127e-16
51988.36 1.1259e-16
52108.19 1.1247e-16
52228.31 1.1235e-16
52348.7 1.1198e-16
52469.42 1.1212e-16
52590.37 1.1226e-16
52711.59 1.1266e-16
52833.09 1.1228e-16
52954.88 1.1191e-16
53076.94 1.1179e-16
53199.35 1.1167e-16
53321.98 1.1181e-16
53444.89 1.1194e-16
53568.08 1.1208e-16
53691.56 1.1196e-16
53815.32 1.1209e-16
53939.37 1.1223e-16
54063.76 1.1236e-16
54188.39 1.1224e-16
54313.3 1.1212e-16
54438.49 1.1251e-16
54563.98 1.129e-16
54689.75 1.1277e-16
54815.81 1.1291e-16
54942.23 1.133e-16
55068.87 1.1343e-16
55195.81 1.1357e-16
55323.04 1.1449e-16
55450.56 1.1462e-16
55578.38 1.1449e-16
55706.55 1.1515e-16
55834.96 1.1581e-16
55963.67 1.1594e-16
56092.67 1.1661e-16
56221.97 1.1701e-16
56351.56 1.1742e-16
56481.46 1.1836e-16
56611.71 1.1904e-16
56742.2 1.2e-16
56873.0 1.2041e-16
57004.1 1.2138e-16
57135.49 1.2264e-16
57267.19 1.2391e-16
57399.26 1.2491e-16
57531.57 1.262e-16
57664.19 1.2751e-16
57797.11 1.2913e-16
57930.33 1.3077e-16
58063.87 1.3242e-16
58197.71 1.3441e-16
58331.92 1.3643e-16
58466.38 1.3879e-16
58601.15 1.4152e-16
58736.23 1.4398e-16
58871.62 1.4749e-16
59095.91 8.406e-17
59404.99 1.6899e-16
59714.06 1.8763e-16
60023.13 1.8413e-16
60332.21 1.5103e-16
60641.28 1.879e-16
60950.35 2.7381e-16
61259.44 3.2864e-16
61568.51 3.7769e-16
61877.57 5.7731e-16
62186.65 6.3277e-16
62495.73 5.422e-16
62804.8 4.7227e-16
63113.87 3.9577e-16
63422.95 3.2428e-16
63732.03 2.7292e-16
64041.1 2.7794e-16
64350.17 2.5742e-16
64659.25 2.2495e-16
64968.32 2.103e-16
65277.39 2.0624e-16
65586.47 1.9304e-16
65895.54 2.0484e-16
66204.61 2.7158e-16
66513.7 1.8145e-16
66822.76 2.2345e-16
67131.83 1.3813e-16
67440.91 1.9744e-16
67749.99 1.8094e-16
68059.07 1.7407e-16
68368.14 1.7462e-16
68677.21 2.0127e-16
68986.29 1.27e-16
69295.35 1.9993e-16
69604.43 2.8035e-16
69913.51 2.4188e-16
70222.58 1.6637e-16
70531.66 1.9617e-16
70840.73 1.4314e-16
71149.8 2.2988e-16
71458.88 2.2902e-16
71767.95 2.3771e-16
72077.03 2.5661e-16
72386.1 1.8984e-16
72695.17 2.7102e-16
73004.26 2.5966e-16
73313.32 2.5771e-16
73622.39 3.7223e-16
73931.47 3.1961e-16
74240.55 4.5629e-16
74549.62 4.7657e-16
74858.69 5.105e-16
75147.54 5.1356e-16
75167.77 4.6852e-16
75476.85 3.9708e-16
75766.91 5.2949e-16
75785.91 6.5459e-16
76386.29 5.6915e-16
77005.67 5.3262e-16
77625.05 4.9184e-16
78244.43 4.8717e-16
78863.82 3.95e-16
79483.19 3.5219e-16
80102.57 2.906e-16
80721.96 2.6117e-16
81341.33 2.2958e-16
81960.71 2.0029e-16
82580.09 2.0507e-16
83199.47 2.0304e-16
83818.86 1.9044e-16
84438.23 2.2568e-16
85057.62 2.2061e-16
85676.99 2.5727e-16
86296.38 2.7017e-16
86915.75 2.2662e-16
87535.13 1.9498e-16
88154.52 1.3734e-16
88773.89 1.3283e-16
89393.27 1.1902e-16
90012.65 7.5738e-17
90632.03 8.4361e-17
91251.42 9.4947e-17
91870.79 7.2769e-17
92490.18 8.7956e-17
93109.56 6.0266e-17
93728.94 8.6346e-17
94348.31 9.8681e-17
94967.69 9.6481e-17
95587.08 8.3572e-17
96206.45 6.8517e-17
96825.83 6.3566e-17
97445.22 4.4775e-17
98064.6 5.3632e-17
98683.98 7.3093e-17
99303.36 5.7558e-17
99922.7 5.9269e-17
100542.13 5.7769e-17
101161.46 5.9378e-17
101780.91 6.5113e-17
102400.25 5.9704e-17
103019.68 5.5976e-17
103639.03 5.4861e-17
104258.37 6.4196e-17
104877.8 7.2902e-17
105497.13 9.549e-17
106116.58 9.4161e-17
106735.91 7.5657e-17
107355.25 7.9119e-17
107974.69 7.0893e-17
108594.03 7.5196e-17
109213.46 6.823e-17
109832.8 1.0034e-16
110452.24 1.1958e-16
111071.58 1.3269e-16
111690.92 2.2027e-16
112310.35 2.9428e-16
112929.69 2.7868e-16
113549.13 2.0977e-16
114168.47 1.674e-16
114787.9 1.3088e-16
115407.24 1.0296e-16
116026.58 9.673e-17
116646.02 7.7572e-17
117265.36 9.0414e-17
117884.79 9.6481e-17
118504.12 8.9035e-17
119123.57 8.243e-17
119742.91 8.6662e-17
120362.24 8.7283e-17
120981.69 6.871e-17
121601.03 7.8375e-17
122220.46 7.9764e-17
122839.79 8.3255e-17
123459.14 9.0639e-17
124078.57 8.9628e-17
124697.91 7.5748e-17
125317.35 8.2635e-17
125936.69 9.3709e-17
126556.12 1.0602e-16
127175.47 1.1639e-16
127794.8 1.432e-16
128414.24 1.5129e-16
129033.58 9.3931e-17
129653.02 6.3119e-17
130272.35 5.0055e-17
130891.69 5.712e-17
131511.13 5.7214e-17
132130.47 5.0474e-17
132749.91 4.7598e-17
133369.24 5.6034e-17
133988.67 5.6854e-17
134608.02 5.565e-17
135227.36 5.2225e-17
135846.8 5.0915e-17
136466.13 5.0461e-17
137085.57 4.0332e-17
137704.91 4.7892e-17
138324.35 4.2364e-17
138943.68 3.5234e-17
139563.02 3.3902e-17
140182.46 3.8613e-17
140801.8 3.4064e-17
141421.23 4.5407e-17
142040.57 4.3519e-17
142660.01 3.9627e-17
143279.35 3.7808e-17
143898.68 3.6141e-17
144518.13 3.3121e-17
145051.09 3.1952e-17
145965.67 2.7733e-17
146880.36 3.1144e-17
147794.96 3.4477e-17
148709.55 3.8169e-17
149624.15 3.3145e-17
150538.84 3.1555e-17
151453.44 1.5595e-17
152368.02 2.766e-17
153282.72 2.959e-17
154197.32 3.5199e-17
155111.9 6.9749e-17
156026.5 7.6479e-17
156941.19 4.0159e-17
157855.79 3.0408e-17
158770.38 3.236e-17
159685.07 3.5724e-17
160599.67 3.3623e-17
161514.25 3.3544e-17
162428.95 3.08e-17
163343.55 4.3288e-17
164258.13 5.1113e-17
165172.73 4.6195e-17
166087.44 4.5072e-17
167002.01 4.4091e-17
167916.61 4.9108e-17
168831.21 4.9301e-17
169745.9 5.071e-17
170660.5 5.9671e-17
171575.1 5.2105e-17
172489.79 4.5685e-17
173404.38 4.5126e-17
174318.98 4.9282e-17
175233.67 4.2719e-17
176148.25 4.3004e-17
177062.85 3.5196e-17
177977.44 4.7035e-17
178892.13 3.6739e-17
179806.73 3.7473e-17
180721.31 3.7957e-17
181636.01 3.9047e-17
182550.61 3.451e-17
183465.19 3.6302e-17
184379.88 4.2397e-17
185294.48 4.8906e-17
186209.08 5.3612e-17
187123.67 7.8038e-17
188038.36 5.5696e-17
188952.96 3.5891e-17
189867.54 3.9921e-17
190782.25 3.7388e-17
191696.85 3.0948e-17
192611.42 3.9018e-17
193526.02 3.7782e-17
194440.73 3.9141e-17
195355.31 3.2222e-17
196269.91 4.0937e-17
197184.61 4.1153e-17
198099.19 2.8269e-17
199013.79 3.5926e-17
199928.39 3.8138e-17
200843.08 4.1183e-17
201757.67 4.5899e-17
202672.27 2.9913e-17
203586.96 3.2765e-17
205035.31 4.2223e-17
206785.88 3.6736e-17
208537.46 3.8341e-17
210290.05 4.3959e-17
212043.52 4.2834e-17
213797.9 4.5016e-17
215553.27 4.3563e-17
217309.55 4.6109e-17
219066.81 4.8466e-17
220825.08 4.656e-17
222584.24 4.218e-17
224344.41 4.8051e-17
226105.47 4.789e-17
227867.51 5.1262e-17
229630.56 5.4546e-17
231394.52 5.3406e-17
233159.47 5.553e-17
234925.42 5.2346e-17
236692.27 5.3923e-17
238460.21 5.4378e-17
240228.96 5.2051e-17
241998.77 4.9706e-17
243769.62 5.1945e-17
245541.35 5.5271e-17
247314.07 5.8982e-17
249087.8 5.8311e-17
250862.42 5.5104e-17
252638.14 5.4717e-17
254414.77 5.3158e-17
256192.49 5.5687e-17
257971.08 6.2083e-17
259750.72 6.1233e-17
261531.32 5.8047e-17
263312.92 5.6241e-17
265095.52 5.7841e-17
266879.15 5.7616e-17
268663.74 5.7532e-17
270449.33 5.5436e-17
272235.92 5.9617e-17
274023.51 6.1838e-17
275812.21 6.0963e-17
277601.79 5.8026e-17
279392.37 5.8338e-17
281184.04 6.1375e-17
282976.74 6.2781e-17
284770.31 6.3931e-17
286564.97 6.107e-17
288360.66 6.0095e-17
290157.44 6.5313e-17
291955.19 6.4734e-17
293753.87 6.2358e-17
295553.71 6.0263e-17
297354.48 6.1827e-17
299156.31 6.4457e-17
300959.17 6.1073e-17
302763.03 6.2986e-17
304567.97 6.3647e-17
306373.92 6.128e-17
308180.86 6.1597e-17
309988.9 6.376e-17
311798.05 6.763e-17
313608.17 6.5912e-17
315419.32 6.5427e-17
317231.44 6.6329e-17
319044.78 6.8035e-17
320859.01 6.9337e-17
322674.4 6.8262e-17
324490.73 6.6774e-17
326308.24 6.726e-17
328126.78 7.218e-17
329946.25 6.6046e-17
331766.88 6.5477e-17
333588.6 9.8452e-17
335411.37 9.5125e-17
337235.21 7.3856e-17
339060.08 7.1471e-17
340885.97 6.9032e-17
342712.99 7.9077e-17
344541.19 7.4054e-17
346370.27 1.0435e-16
348200.56 1.2968e-16
