# col1 col2
# An Atlas of Galaxy Spectral Energy Distributions from the Ultraviolet to the Mid-Infrared
# Brown et al. (2014)
# http://dx.doi.org/10.5072/03/529D3551F0117
# 
# Column 1 : Restframe Wavelength (Angstrom)
# Column 2 : Flux per unit wavelength (ergs/s/cm^2/Angstrom)
# Column 3 : Observed wavelength (Angstrom)
# Column 4 : Source (0 = model, 1 = Optical Spectrum, 2 = Akari, 3 = Spitzer IRS)
# 
102.07 1.2611e-22
103.97 1.5372e-22
105.9 1.9308e-22
108.12 2.442e-22
109.88 3.7996e-22
114.0 5.646e-22
118.01 7.8839e-22
121.04 2.1515e-21
125.0 2.9974e-21
127.03 3.4973e-21
127.91 3.7909e-21
130.89 4.6853e-21
132.1 5.3424e-21
133.94 6.1057e-21
137.06 7.902e-21
139.93 9.6103e-21
142.86 1.5337e-20
146.86 2.3482e-20
150.98 2.963e-20
154.85 3.7131e-20
158.82 4.621e-20
162.15 5.4167e-20
165.92 6.6334e-20
170.18 8.0304e-20
172.95 9.2414e-20
176.97 1.106e-19
179.85 1.2611e-19
181.93 1.3732e-19
186.17 1.6208e-19
190.95 1.9712e-19
194.05 2.2118e-19
198.11 2.5629e-19
201.8 2.9494e-19
205.07 3.2714e-19
209.85 3.7735e-19
216.23 4.6638e-19
220.25 5.2691e-19
222.8 5.7245e-19
226.94 6.4378e-19
230.1 1.2295e-18
233.84 2.0079e-18
239.83 2.6106e-18
245.99 2.7909e-18
251.72 3.1314e-18
256.99 2.8889e-18
259.96 3.402e-18
264.19 3.6961e-18
269.1 3.9241e-18
274.1 4.147e-18
279.2 4.3726e-18
283.73 4.6104e-18
289.67 4.7287e-18
295.74 5.102e-18
301.24 5.1968e-18
308.26 5.6071e-18
318.35 6.1764e-18
328.03 6.6487e-18
338.0 7.0752e-18
348.27 7.4944e-18
357.2 7.8839e-18
366.36 8.2935e-18
374.9 8.6445e-18
385.4 8.8255e-18
395.29 9.3916e-18
405.43 9.789e-18
413.91 1.0086e-17
421.61 1.0345e-17
430.44 1.0586e-17
441.48 1.1034e-17
450.72 1.1369e-17
460.16 1.1661e-17
469.8 1.2043e-17
479.64 1.2466e-17
489.68 1.2845e-17
499.93 1.342e-17
505.72 1.9712e-17
511.58 4.5681e-17
519.89 4.6638e-17
529.55 4.8166e-17
539.4 4.6853e-17
549.43 5.8042e-17
559.64 6.8036e-17
570.05 7.5117e-17
580.65 7.3576e-17
590.08 8.5063e-17
599.67 8.6644e-17
609.41 9.8796e-17
619.31 1.1317e-16
629.38 1.2071e-16
639.6 1.2582e-16
650.0 1.3796e-16
657.52 1.4446e-16
665.14 1.5443e-16
674.39 1.6208e-16
685.35 1.6208e-16
694.88 1.9353e-16
704.55 1.8782e-16
716.0 2.2322e-16
725.96 2.3321e-16
734.36 2.4476e-16
744.58 2.6653e-16
754.94 2.8167e-16
765.44 2.9699e-16
774.3 3.197e-16
785.07 3.4414e-16
794.17 3.6036e-16
805.21 3.7648e-16
814.54 3.9241e-16
825.87 4.2339e-16
835.43 3.8792e-16
845.11 4.5471e-16
854.89 4.7505e-16
864.79 5.0552e-16
874.8 5.3671e-16
884.93 5.7113e-16
895.18 5.9943e-16
905.55 6.1622e-16
916.03 8.9071e-16
924.51 5.2691e-15
935.21 1.1085e-14
946.04 2.1367e-14
954.8 2.778e-14
965.85 3.3864e-14
974.79 9.6103e-15
986.08 3.4893e-14
995.2 3.3864e-14
1004.41 4.0247e-14
1016.04 3.7561e-14
1025.44 1.7129e-14
1034.93 3.1677e-14
1044.51 4.7178e-14
1054.17 4.6317e-14
1063.92 4.0996e-14
1073.77 4.5471e-14
1086.2 4.0526e-14
1096.25 4.6853e-14
1103.85 4.4848e-14
1114.07 4.4744e-14
1124.37 4.0901e-14
1134.78 4.6317e-14
1145.28 4.3425e-14
1155.88 4.4848e-14
1163.89 4.5576e-14
1174.66 3.5378e-14
1185.53 4.4334e-14
1193.74 3.8613e-14
1204.79 3.1459e-14
1215.94 1.7328e-14
1224.37 3.4494e-14
1235.69 4.2829e-14
1244.26 4.4848e-14
1255.77 4.413e-14
1264.48 4.2339e-14
1276.18 4.5998e-14
1285.02 4.6317e-14
1293.93 4.1566e-14
1305.9 4.2047e-14
1314.96 4.5998e-14
1324.07 4.4436e-14
1336.32 4.2436e-14
1345.58 4.4744e-14
1354.91 4.4539e-14
1364.3 4.2436e-14
1373.76 4.2632e-14
1386.47 4.2928e-14
1396.08 3.7822e-14
1405.76 3.8971e-14
1415.5 4.128e-14
1425.32 4.0714e-14
1435.2 4.1185e-14
1441.82 4.2047e-14
1448.48 4.1758e-14
1455.16 4.1185e-14
1465.25 3.9695e-14
1475.4 3.9695e-14
1485.63 3.9513e-14
1495.93 3.9331e-14
1506.3 3.7909e-14
1513.25 3.5542e-14
1516.74 3.6622e-14
1523.74 3.6622e-14
1534.3 3.3554e-14
1544.94 3.4099e-14
1555.65 3.2941e-14
1566.43 3.4099e-14
1573.66 3.5542e-14
1584.57 3.5788e-14
1595.55 3.6203e-14
1606.61 3.5297e-14
1614.03 3.5054e-14
1625.22 3.4573e-14
1636.48 3.5542e-14
1644.04 3.5378e-14
1655.43 3.4573e-14
1666.91 3.5788e-14
1670.75 3.4177e-14
1678.46 3.6119e-14
1686.21 3.6203e-14
1693.99 3.5054e-14
1705.73 3.4256e-14
1713.61 3.3323e-14
1725.48 3.3093e-14
1733.45 3.4099e-14
1745.46 3.3476e-14
1753.52 3.4256e-14
1765.68 3.2714e-14
1773.83 3.2941e-14
1786.12 3.3169e-14
1794.37 3.3942e-14
1806.8 3.3942e-14
1815.14 3.234e-14
1823.52 3.2714e-14
1836.16 3.2117e-14
1844.64 3.0181e-14
1853.15 3.0181e-14
1866.0 3.0813e-14
1874.61 3.175e-14
1883.26 2.9836e-14
1896.32 2.8691e-14
1905.07 3.0112e-14
1913.86 2.9224e-14
1927.13 2.8559e-14
1936.03 2.9157e-14
1944.96 3.0251e-14
1953.94 2.8493e-14
1967.48 3.0043e-14
1976.56 3.0742e-14
1985.69 2.9426e-14
1994.85 2.8823e-14
2004.06 2.9224e-14
2013.31 2.909e-14
2027.27 2.9562e-14
2036.62 2.8559e-14
2046.02 2.8889e-14
2055.47 2.7844e-14
2064.96 2.8167e-14
2074.49 2.9562e-14
2079.27 2.8493e-14
2084.06 2.8956e-14
2093.68 2.7909e-14
2103.35 2.8297e-14
2113.06 2.8427e-14
2122.81 2.8625e-14
2132.61 2.778e-14
2147.39 2.7717e-14
2157.3 2.8167e-14
2167.26 2.7653e-14
2177.26 2.7462e-14
2187.31 2.7399e-14
2197.41 2.7909e-14
2202.48 2.7399e-14
2212.64 2.6714e-14
2222.85 2.6347e-14
2233.11 2.7086e-14
2243.42 2.6591e-14
2253.78 2.5926e-14
2264.18 2.5986e-14
2274.63 2.6226e-14
2285.13 2.6531e-14
2295.68 2.5517e-14
2306.27 2.5877e-14
2316.92 2.5351e-14
2327.61 2.2443e-14
2332.98 2.4386e-14
2343.75 2.3671e-14
2354.57 2.4735e-14
2365.44 2.3626e-14
2376.35 2.4015e-14
2387.32 2.2833e-14
2392.83 2.3475e-14
2403.87 2.3051e-14
2414.97 2.3162e-14
2426.11 2.3981e-14
2437.31 2.344e-14
2442.93 2.3934e-14
2454.21 2.3829e-14
2465.53 2.3561e-14
2476.91 2.3029e-14
2482.62 2.2979e-14
2494.08 2.1949e-14
2505.6 2.3578e-14
2511.37 2.1956e-14
2517.16 2.2009e-14
2522.96 2.1659e-14
2534.61 2.1814e-14
2546.31 2.1668e-14
2552.18 2.2588e-14
2563.96 2.218e-14
2575.79 2.2754e-14
2587.68 2.2603e-14
2593.65 2.2346e-14
2605.62 2.1842e-14
2617.65 2.1498e-14
2623.68 2.2103e-14
2635.79 2.2675e-14
2647.96 2.3913e-14
2654.06 2.4417e-14
2666.31 2.3056e-14
2672.46 2.3541e-14
2684.79 2.3764e-14
2697.19 2.2648e-14
2703.4 2.3125e-14
2715.88 2.214e-14
2722.14 2.1889e-14
2734.71 2.2507e-14
2747.33 2.0626e-14
2753.66 2.1109e-14
2766.37 2.1756e-14
2772.75 2.2265e-14
2785.55 2.117e-14
2791.97 1.8272e-14
2804.86 1.9049e-14
2817.81 2.1978e-14
2824.3 2.2596e-14
2837.34 2.2138e-14
2843.88 2.1537e-14
2857.01 2.0525e-14
2863.59 2.2199e-14
2876.81 2.2565e-14
2883.44 2.2361e-14
2896.75 2.2522e-14
2910.12 2.3752e-14
2930.29 2.306e-14
2950.6 2.2596e-14
2971.06 2.2813e-14
2991.65 2.2769e-14
3012.39 2.2778e-14
3033.27 2.2839e-14
3047.27 2.295e-14
3068.39 2.2959e-14
3089.66 2.2862e-14
3111.08 2.303e-14
3132.64 2.2618e-14
3147.1 2.252e-14
3168.92 2.279e-14
3190.88 2.1924e-14
3213.0 2.2495e-14
3227.83 2.1637e-14
3250.21 2.2982e-14
3272.74 2.3744e-14
3287.84 2.3587e-14
3310.63 2.3327e-14
3318.26 2.2904e-14
3325.91 2.296e-14
3333.58 2.3661e-14
3341.27 2.2136e-14
3348.97 2.3832e-14
3356.69 2.292e-14
3364.43 2.043e-14
3372.18 2.067e-14
3379.96 2.2772e-14
3387.75 2.2933e-14
3395.56 2.2569e-14
3403.39 2.3528e-14
3411.23 2.186e-14
3419.09 2.2683e-14
3426.98 2.3268e-14
3434.88 2.4145e-14
3442.79 2.2693e-14
3450.73 2.3118e-14
3458.69 2.2647e-14
3466.66 2.2598e-14
3474.65 2.3558e-14
3482.66 2.2814e-14
3490.69 2.3948e-14
3498.73 2.2301e-14
3506.8 2.3517e-14
3514.88 2.2514e-14
3522.99 2.3742e-14
3531.11 2.2939e-14
3539.25 2.3968e-14
3547.41 2.4757e-14
3555.58 2.4591e-14
3563.78 2.3979e-14
3572.0 2.2485e-14
3580.23 2.2334e-14
3588.48 2.0419e-14
3596.76 2.2756e-14
3605.05 2.3887e-14
3613.36 2.2398e-14
3621.69 2.2196e-14
3630.04 2.5489e-14
3638.4 2.3901e-14
3646.79 2.3849e-14
3648.01 2.3105e-14
3650.74 1.3728e-14
3653.47 1.8859e-14
3656.2 2.3834e-14
3658.93 2.9508e-14
3661.66 3.326e-14
3664.39 3.1261e-14
3667.12 2.5251e-14
3669.85 2.5585e-14
3672.59 2.2038e-14
3675.32 2.7264e-14
3678.05 2.0435e-14
3680.78 1.929e-14
3683.51 2.4146e-14
3686.24 2.4009e-14
3688.97 2.5699e-14
3691.7 2.2657e-14
3694.43 2.1145e-14
3697.16 2.3732e-14
3699.89 1.5117e-14
3702.62 1.3044e-14
3705.35 2.1831e-14
3708.08 2.5431e-14
3710.81 2.1621e-14
3713.54 2.2099e-14
3716.27 2.5493e-14
3719.0 1.5992e-14
3721.73 2.2216e-14
3724.46 3.6972e-14
3727.2 6.2253e-14
3729.93 7.3162e-14
3732.66 7.0817e-14
3735.39 4.481e-14
3738.12 2.9386e-14
3740.85 2.65e-14
3743.58 2.2148e-14
3746.31 2.4872e-14
3749.04 1.9579e-14
3751.77 1.8978e-14
3754.5 3.175e-14
3757.23 2.2626e-14
3759.96 2.3733e-14
3762.69 2.3529e-14
3765.42 2.9871e-14
3768.15 2.4527e-14
3770.88 2.1052e-14
3773.61 2.328e-14
3776.34 2.4244e-14
3779.08 2.5024e-14
3781.81 3.3527e-14
3784.54 3.7469e-14
3787.27 2.8704e-14
3790.0 2.9623e-14
3792.73 2.8333e-14
3795.46 2.6624e-14
3798.19 2.307e-14
3800.92 2.2057e-14
3803.65 2.4708e-14
3806.38 3.1098e-14
3809.11 2.8227e-14
3811.84 3.132e-14
3814.57 2.9692e-14
3817.3 3.3661e-14
3820.03 2.3845e-14
3822.76 2.5418e-14
3825.49 2.1427e-14
3828.22 3.046e-14
3830.95 2.1877e-14
3833.69 2.7004e-14
3836.42 2.1262e-14
3839.15 2.4869e-14
3841.88 2.1471e-14
3844.61 2.5733e-14
3847.34 2.9667e-14
3850.07 2.4492e-14
3852.8 2.6005e-14
3855.53 3.2988e-14
3858.26 3.5355e-14
3860.99 3.0261e-14
3863.72 2.7692e-14
3866.45 3.4911e-14
3869.18 3.1484e-14
3871.91 3.689e-14
3874.64 3.463e-14
3877.37 3.0738e-14
3880.1 3.2223e-14
3882.83 3.1227e-14
3885.56 2.9848e-14
3888.3 1.9999e-14
3891.03 2.1943e-14
3893.76 3.1986e-14
3896.49 3.2303e-14
3899.22 2.4464e-14
3901.95 3.0647e-14
3904.68 3.0782e-14
3907.41 3.0349e-14
3910.14 2.6338e-14
3912.87 3.0431e-14
3915.6 3.227e-14
3918.33 2.7154e-14
3921.06 3.2769e-14
3923.79 3.057e-14
3926.52 3.1456e-14
3929.25 3.1023e-14
3931.98 2.4425e-14
3934.71 2.2749e-14
3937.44 2.2003e-14
3940.18 2.4866e-14
3942.91 2.697e-14
3945.64 2.9813e-14
3948.37 2.7968e-14
3951.1 2.8148e-14
3953.83 3.1178e-14
3956.56 3.1857e-14
3959.29 2.9291e-14
3962.02 3.0682e-14
3964.75 2.6688e-14
3967.48 2.0478e-14
3970.21 2.0521e-14
3972.94 2.1557e-14
3975.67 2.2004e-14
3978.4 2.2478e-14
3981.13 2.6014e-14
3983.86 3.274e-14
3986.59 3.2501e-14
3989.32 3.3442e-14
3992.05 3.3997e-14
3994.79 3.2204e-14
3997.52 3.413e-14
4000.25 2.9597e-14
4002.98 3.348e-14
4005.71 3.3254e-14
4008.44 3.3498e-14
4011.17 3.4783e-14
4013.9 3.432e-14
4016.63 3.7358e-14
4019.36 3.9941e-14
4022.09 3.7219e-14
4024.82 3.3496e-14
4027.55 3.5017e-14
4030.28 3.6014e-14
4033.01 3.5138e-14
4035.74 3.6193e-14
4038.47 3.5456e-14
4041.2 3.628e-14
4043.93 3.3321e-14
4046.66 3.4573e-14
4049.4 3.3088e-14
4052.13 3.9628e-14
4054.86 3.8842e-14
4057.59 3.4734e-14
4060.32 3.5556e-14
4063.05 3.9746e-14
4065.78 3.3261e-14
4068.51 3.4013e-14
4071.24 3.5664e-14
4073.97 3.8164e-14
4076.7 3.5506e-14
4079.43 3.6387e-14
4082.16 3.4881e-14
4084.89 3.2132e-14
4087.62 3.3429e-14
4090.35 3.9252e-14
4093.08 3.7404e-14
4095.81 3.4044e-14
4098.54 3.4663e-14
4101.27 3.5763e-14
4104.01 3.6362e-14
4106.74 3.1404e-14
4109.47 3.1483e-14
4112.2 3.2344e-14
4114.93 3.4372e-14
4117.66 3.3247e-14
4120.39 2.9812e-14
4123.12 3.3606e-14
4125.85 3.2496e-14
4128.58 3.2484e-14
4131.31 3.2782e-14
4134.04 3.3918e-14
4136.77 3.3939e-14
4139.5 3.4047e-14
4142.23 3.5486e-14
4144.96 3.4534e-14
4147.69 3.3534e-14
4150.42 3.4663e-14
4153.15 3.1465e-14
4155.89 3.5713e-14
4158.62 3.487e-14
4161.35 3.8451e-14
4164.08 3.928e-14
4166.81 3.5827e-14
4169.54 3.4826e-14
4172.27 3.4628e-14
4175.0 3.4979e-14
4177.73 3.3787e-14
4180.46 3.3856e-14
4183.19 3.0033e-14
4185.92 3.7564e-14
4188.65 3.2924e-14
4191.38 3.4682e-14
4194.11 3.4113e-14
4196.84 3.7312e-14
4199.57 3.4424e-14
4202.3 3.4482e-14
4205.03 3.2121e-14
4207.76 3.628e-14
4210.5 3.3557e-14
4213.23 3.4951e-14
4215.96 3.3228e-14
4218.69 3.1717e-14
4221.42 3.317e-14
4224.15 3.5149e-14
4226.88 3.7408e-14
4229.61 3.2876e-14
4232.34 3.4867e-14
4235.07 3.9048e-14
4237.8 3.7353e-14
4240.53 3.26e-14
4243.26 3.3883e-14
4245.99 3.655e-14
4248.72 3.5872e-14
4251.45 3.8622e-14
4254.18 3.2175e-14
4256.91 3.5168e-14
4259.64 3.2603e-14
4262.37 3.5216e-14
4265.11 3.3756e-14
4267.84 3.5947e-14
4270.57 3.3866e-14
4273.3 3.2929e-14
4276.03 3.5469e-14
4278.76 3.4005e-14
4281.49 3.6325e-14
4284.22 3.2014e-14
4286.95 3.264e-14
4289.68 3.2289e-14
4292.41 3.4623e-14
4295.14 3.2949e-14
4297.87 3.0519e-14
4300.6 3.3381e-14
4303.33 2.9208e-14
4306.06 2.9041e-14
4308.79 3.2723e-14
4311.52 3.2198e-14
4314.25 3.0338e-14
4316.99 3.3741e-14
4319.72 3.4554e-14
4322.45 3.3567e-14
4325.18 3.0928e-14
4327.91 3.1819e-14
4330.64 2.98e-14
4333.37 3.0117e-14
4336.1 3.6362e-14
4338.83 3.6423e-14
4341.56 3.7687e-14
4344.29 3.8725e-14
4347.02 3.6865e-14
4349.75 3.267e-14
4352.48 3.1169e-14
4355.21 3.1025e-14
4357.94 3.3095e-14
4360.67 3.5347e-14
4363.4 3.7558e-14
4366.13 3.5976e-14
4368.86 3.5628e-14
4371.6 3.5577e-14
4374.33 3.5073e-14
4377.06 3.403e-14
4379.79 3.4932e-14
4382.52 3.6613e-14
4385.25 3.4335e-14
4387.98 3.1501e-14
4390.71 3.2806e-14
4393.44 3.3317e-14
4396.17 3.5178e-14
4398.9 3.4799e-14
4401.63 3.3739e-14
4404.36 3.3459e-14
4407.09 3.3957e-14
4409.82 3.516e-14
4412.55 3.641e-14
4415.28 3.8658e-14
4418.01 3.8167e-14
4420.74 3.721e-14
4423.48 3.7556e-14
4426.21 3.7297e-14
4428.94 3.9022e-14
4431.67 3.6788e-14
4434.4 3.7632e-14
4437.13 3.3554e-14
4439.86 3.3847e-14
4442.59 3.6384e-14
4445.32 3.8677e-14
4448.05 3.7592e-14
4450.78 3.333e-14
4453.51 3.5443e-14
4456.24 3.645e-14
4458.97 3.7155e-14
4461.7 3.732e-14
4464.43 3.506e-14
4467.16 3.395e-14
4469.89 3.6479e-14
4472.62 3.9024e-14
4475.35 4.1563e-14
4478.09 3.701e-14
4480.82 3.9528e-14
4483.55 3.8762e-14
4486.28 3.7353e-14
4489.01 3.7836e-14
4491.74 3.799e-14
4494.47 3.5919e-14
4497.2 3.6631e-14
4499.93 3.7733e-14
4502.66 3.7534e-14
4505.39 3.7938e-14
4508.12 3.9505e-14
4510.85 3.7882e-14
4513.58 3.7557e-14
4516.31 3.8322e-14
4519.04 3.8243e-14
4521.77 3.6858e-14
4524.5 3.6419e-14
4527.23 3.5775e-14
4529.96 3.6516e-14
4532.7 3.7369e-14
4535.43 3.5511e-14
4538.16 3.806e-14
4540.89 3.9663e-14
4543.62 3.9418e-14
4546.35 3.9582e-14
4549.08 3.7604e-14
4551.81 3.8746e-14
4554.54 3.8462e-14
4557.27 3.9034e-14
4560.0 3.8897e-14
4562.73 3.8346e-14
4565.46 3.6634e-14
4568.19 3.555e-14
4570.92 3.5243e-14
4573.65 3.5714e-14
4576.38 3.816e-14
4579.11 3.8557e-14
4581.84 3.6201e-14
4584.58 3.5275e-14
4587.31 3.6069e-14
4590.04 3.9464e-14
4592.77 3.9505e-14
4595.5 3.6355e-14
4598.23 3.6085e-14
4600.96 3.9202e-14
4603.69 4.2429e-14
4606.42 3.993e-14
4609.15 3.9005e-14
4611.88 4.0098e-14
4614.61 4.1038e-14
4617.34 4.0994e-14
4620.07 4.0061e-14
4622.8 3.8341e-14
4625.53 3.7981e-14
4628.26 3.9787e-14
4630.99 4.109e-14
4633.72 3.9475e-14
4636.45 4.023e-14
4639.19 3.4551e-14
4641.92 3.6692e-14
4644.65 3.8988e-14
4647.38 3.7056e-14
4650.11 3.7655e-14
4652.84 3.9186e-14
4655.57 3.9784e-14
4658.3 4.0869e-14
4661.03 4.0487e-14
4663.76 3.9906e-14
4666.49 3.8301e-14
4669.22 3.6843e-14
4671.95 3.4169e-14
4674.68 3.5583e-14
4677.41 3.718e-14
4680.14 3.3329e-14
4682.87 3.7315e-14
4685.6 3.8566e-14
4688.33 4.1011e-14
4691.06 4.1561e-14
4693.8 3.7819e-14
4696.53 3.8058e-14
4699.26 3.8301e-14
4701.99 3.5509e-14
4704.72 3.6996e-14
4707.45 3.5399e-14
4710.18 3.4913e-14
4712.91 3.5563e-14
4715.64 3.9317e-14
4718.37 3.8413e-14
4721.1 4.0587e-14
4723.83 3.9404e-14
4726.56 3.8804e-14
4729.29 3.6662e-14
4732.02 3.6662e-14
4734.75 3.8631e-14
4737.48 3.8363e-14
4740.21 3.8245e-14
4742.94 3.6515e-14
4745.68 3.8699e-14
4748.41 3.9253e-14
4751.14 4.1739e-14
4753.87 3.9266e-14
4756.6 3.7392e-14
4759.33 3.8108e-14
4762.06 3.6993e-14
4764.79 3.8613e-14
4767.52 3.6256e-14
4770.25 3.4896e-14
4772.98 3.5269e-14
4775.71 3.9064e-14
4778.44 3.9115e-14
4781.17 3.9258e-14
4783.9 3.8947e-14
4786.63 3.4223e-14
4789.36 3.7779e-14
4792.09 3.6335e-14
4794.82 3.5364e-14
4797.55 3.8514e-14
4800.29 3.72e-14
4803.02 3.7952e-14
4805.75 3.526e-14
4808.48 3.7716e-14
4811.21 3.7933e-14
4813.94 4.0144e-14
4816.67 4.0615e-14
4819.4 3.8408e-14
4822.13 3.6382e-14
4824.86 3.996e-14
4827.59 3.7442e-14
4830.32 3.9739e-14
4833.05 3.8189e-14
4835.78 3.7104e-14
4838.51 3.5534e-14
4841.24 4.0411e-14
4843.97 3.6428e-14
4846.7 3.8106e-14
4849.43 3.6701e-14
4852.17 3.8305e-14
4854.9 3.7723e-14
4857.63 4.4172e-14
4860.36 5.103e-14
4863.09 6.2776e-14
4865.82 5.7984e-14
4868.55 4.9067e-14
4871.28 3.9e-14
4874.01 3.7039e-14
4876.74 3.5554e-14
4879.47 3.7199e-14
4882.2 3.5745e-14
4884.93 3.3998e-14
4887.66 3.548e-14
4890.39 3.6228e-14
4893.12 3.6112e-14
4895.85 3.6633e-14
4898.58 3.6552e-14
4901.31 3.8481e-14
4904.04 3.6594e-14
4906.78 3.7071e-14
4909.51 3.8362e-14
4912.24 3.4824e-14
4914.97 3.5911e-14
4917.7 3.5219e-14
4920.43 3.1522e-14
4923.16 3.3997e-14
4925.89 3.6698e-14
4928.62 3.755e-14
4931.35 3.6776e-14
4934.08 3.504e-14
4936.81 3.5738e-14
4939.54 3.6391e-14
4942.27 3.3442e-14
4945.0 3.7141e-14
4947.73 3.6964e-14
4950.46 3.7964e-14
4953.19 3.8916e-14
4955.92 4.1274e-14
4958.65 4.1827e-14
4961.39 4.3546e-14
4964.12 3.9724e-14
4966.85 3.9603e-14
4969.58 3.8077e-14
4972.31 3.922e-14
4975.04 3.6875e-14
4977.77 3.817e-14
4980.5 3.9401e-14
4983.23 3.5025e-14
4985.96 3.4706e-14
4988.69 3.549e-14
4991.42 3.4411e-14
4994.15 3.5442e-14
4996.88 3.7107e-14
4999.61 3.7861e-14
5002.34 4.046e-14
5005.07 4.576e-14
5007.8 5.4178e-14
5010.53 5.331e-14
5013.27 4.7144e-14
5016.0 4.027e-14
5018.73 3.2435e-14
5021.46 3.3138e-14
5024.19 3.4603e-14
5026.92 3.432e-14
5029.65 3.7231e-14
5032.38 3.7387e-14
5035.11 3.8011e-14
5037.84 3.6054e-14
5040.57 3.3686e-14
5043.3 3.1156e-14
5046.03 3.5002e-14
5048.76 3.4273e-14
5051.49 3.4538e-14
5054.22 3.6862e-14
5056.95 3.6199e-14
5059.68 3.5854e-14
5062.41 3.85e-14
5065.14 3.6046e-14
5067.88 3.539e-14
5070.61 3.6138e-14
5073.34 3.5178e-14
5076.07 3.4101e-14
5078.8 3.8026e-14
5081.53 3.7758e-14
5084.26 3.5374e-14
5086.99 3.3518e-14
5089.72 3.5125e-14
5092.45 3.6379e-14
5095.18 3.8041e-14
5097.91 3.748e-14
5100.64 3.6771e-14
5103.37 3.5371e-14
5106.1 3.5131e-14
5108.83 3.7388e-14
5111.56 3.3748e-14
5114.29 3.4951e-14
5117.02 3.7018e-14
5119.75 3.8534e-14
5122.49 3.4991e-14
5125.22 3.5772e-14
5127.95 3.2241e-14
5130.68 3.4681e-14
5133.41 3.3868e-14
5136.14 3.5695e-14
5138.87 3.5768e-14
5141.6 3.5423e-14
5144.33 3.5145e-14
5147.06 3.2672e-14
5149.79 3.4638e-14
5152.52 3.4533e-14
5155.25 3.6268e-14
5157.98 3.2454e-14
5160.71 3.4602e-14
5163.44 3.8254e-14
5166.17 3.5467e-14
5168.9 2.9908e-14
5171.63 2.9368e-14
5174.37 3.0119e-14
5177.1 3.2541e-14
5179.83 3.2433e-14
5182.56 3.2495e-14
5185.29 3.3928e-14
5188.02 3.2487e-14
5190.75 3.2834e-14
5193.48 3.4969e-14
5196.21 3.4666e-14
5198.94 3.6641e-14
5201.67 3.6501e-14
5204.4 3.6782e-14
5207.13 3.6573e-14
5209.86 3.2768e-14
5212.59 3.4442e-14
5215.32 3.4056e-14
5218.05 3.4263e-14
5220.78 3.4548e-14
5223.51 3.4935e-14
5226.24 3.4904e-14
5228.98 3.3606e-14
5231.71 3.5754e-14
5234.44 3.5108e-14
5237.17 3.4342e-14
5239.9 3.728e-14
5242.63 3.6424e-14
5245.36 3.6504e-14
5248.09 3.6729e-14
5250.82 3.4554e-14
5253.55 3.7404e-14
5256.28 3.4146e-14
5259.01 3.3953e-14
5261.74 3.56e-14
5264.47 3.3458e-14
5267.2 3.535e-14
5269.93 3.0783e-14
5272.66 3.0498e-14
5275.39 3.4193e-14
5278.12 3.4949e-14
5280.86 3.4099e-14
5283.59 3.4513e-14
5286.32 3.497e-14
5289.05 3.4423e-14
5291.78 3.8138e-14
5294.51 3.7904e-14
5297.24 3.562e-14
5299.97 3.6377e-14
5302.7 3.8699e-14
5305.43 3.5065e-14
5308.16 3.7126e-14
5310.89 4.1552e-14
5313.62 3.8384e-14
5316.35 3.407e-14
5319.08 3.5157e-14
5321.81 3.5219e-14
5324.54 3.4836e-14
5327.27 3.3372e-14
5330.0 3.5529e-14
5332.73 3.3985e-14
5335.47 3.5802e-14
5338.2 3.6915e-14
5340.93 3.6891e-14
5343.66 3.6335e-14
5346.39 3.7454e-14
5349.12 3.7212e-14
5351.85 3.7793e-14
5354.58 3.6439e-14
5357.31 3.452e-14
5360.04 3.8953e-14
5362.77 3.8203e-14
5365.5 3.7512e-14
5368.23 3.6777e-14
5370.96 3.6291e-14
5373.69 3.7122e-14
5376.42 3.4238e-14
5379.15 3.4835e-14
5381.88 3.5404e-14
5384.61 3.5999e-14
5387.34 3.6293e-14
5390.08 3.7283e-14
5392.81 3.6874e-14
5395.54 3.53e-14
5398.27 3.5333e-14
5401.0 3.2332e-14
5403.73 3.5253e-14
5406.46 3.45e-14
5409.19 3.6316e-14
5411.92 3.7534e-14
5414.65 3.6317e-14
5417.38 3.6115e-14
5420.11 4.0001e-14
5422.84 3.7419e-14
5425.57 3.7954e-14
5428.3 3.6551e-14
5431.03 3.4184e-14
5433.76 3.5449e-14
5436.49 3.5483e-14
5439.22 3.4841e-14
5441.96 3.4339e-14
5444.69 3.5299e-14
5447.42 3.6096e-14
5450.15 3.6627e-14
5452.88 3.6022e-14
5455.61 3.5303e-14
5458.34 3.4995e-14
5461.07 3.7019e-14
5463.8 3.6508e-14
5466.53 3.4838e-14
5469.26 3.5683e-14
5471.99 3.7851e-14
5474.72 3.6653e-14
5477.45 3.7808e-14
5480.18 3.4572e-14
5482.91 3.6497e-14
5485.64 3.6952e-14
5488.37 3.6892e-14
5491.1 3.521e-14
5493.83 3.7308e-14
5496.57 3.6239e-14
5499.3 3.6614e-14
5502.03 3.4942e-14
5504.76 3.3824e-14
5507.49 3.5131e-14
5510.22 3.4037e-14
5512.95 3.5499e-14
5515.68 3.5698e-14
5518.41 3.5122e-14
5521.14 3.6556e-14
5523.87 3.7311e-14
5526.6 3.5816e-14
5529.33 3.5164e-14
5532.06 3.8053e-14
5534.79 3.5889e-14
5537.52 3.6413e-14
5540.25 3.6738e-14
5542.98 3.6585e-14
5545.71 3.6804e-14
5548.45 3.4949e-14
5551.18 3.5552e-14
5553.91 3.6382e-14
5556.64 3.4818e-14
5559.37 3.7935e-14
5562.1 3.6504e-14
5564.83 3.6487e-14
5567.56 3.5137e-14
5570.29 3.7603e-14
5573.02 3.6393e-14
5575.75 3.6468e-14
5578.48 3.724e-14
5581.21 3.7055e-14
5583.94 3.7729e-14
5586.67 3.5012e-14
5589.4 3.384e-14
5592.13 3.2029e-14
5594.86 3.3514e-14
5597.59 3.3795e-14
5600.32 3.3825e-14
5603.06 3.4514e-14
5605.79 3.6084e-14
5608.52 3.6677e-14
5611.25 3.708e-14
5613.98 3.6883e-14
5616.71 3.6169e-14
5619.44 3.8654e-14
5622.17 3.4962e-14
5624.9 3.6722e-14
5627.63 3.7365e-14
5630.36 3.8258e-14
5633.09 3.6834e-14
5635.82 3.5816e-14
5638.55 3.5294e-14
5641.28 3.6495e-14
5644.01 3.629e-14
5646.74 3.5806e-14
5649.47 3.6116e-14
5652.2 3.6131e-14
5654.93 3.7008e-14
5657.67 3.7362e-14
5660.4 3.4258e-14
5663.13 3.4013e-14
5665.86 3.3333e-14
5668.59 3.5009e-14
5671.32 3.6922e-14
5674.05 3.5897e-14
5676.78 3.5142e-14
5679.51 3.5764e-14
5682.24 3.6503e-14
5684.97 3.4915e-14
5687.7 3.3506e-14
5690.43 3.5063e-14
5693.16 3.4309e-14
5695.89 3.4868e-14
5698.62 3.5859e-14
5701.35 3.619e-14
5704.08 3.4274e-14
5706.81 3.5462e-14
5709.55 3.6087e-14
5712.28 3.3895e-14
5715.01 3.6265e-14
5717.74 3.9257e-14
5720.47 3.7711e-14
5723.2 3.7367e-14
5725.93 3.6563e-14
5728.66 3.5384e-14
5731.39 3.4576e-14
5734.12 3.5687e-14
5736.85 3.6117e-14
5739.58 3.5384e-14
5742.31 3.6771e-14
5745.04 3.5766e-14
5747.77 3.5861e-14
5750.5 3.7408e-14
5753.23 3.7286e-14
5755.96 3.7565e-14
5758.69 3.9624e-14
5761.42 3.6897e-14
5764.16 3.6371e-14
5766.89 3.7321e-14
5769.62 3.4319e-14
5772.35 3.4628e-14
5775.08 3.3934e-14
5777.81 3.6616e-14
5780.54 3.4894e-14
5783.27 3.5308e-14
5786.0 3.4507e-14
5788.73 3.5898e-14
5791.46 3.6516e-14
5794.19 3.602e-14
5796.92 3.5887e-14
5799.65 3.5378e-14
5802.38 3.64e-14
5805.11 3.5146e-14
5807.84 3.5855e-14
5810.57 3.6589e-14
5813.3 3.6681e-14
5816.03 3.8288e-14
5818.77 3.3542e-14
5821.5 3.725e-14
5824.23 3.697e-14
5826.96 3.8007e-14
5829.69 3.6927e-14
5832.42 3.6027e-14
5835.15 3.8515e-14
5837.88 3.9384e-14
5840.61 3.6992e-14
5843.34 3.6718e-14
5846.07 3.7735e-14
5848.8 3.3137e-14
5851.53 3.5403e-14
5854.26 3.6227e-14
5856.99 3.5033e-14
5859.72 3.5741e-14
5862.45 3.5501e-14
5865.18 3.5476e-14
5867.91 3.7468e-14
5870.65 3.876e-14
5873.38 3.7837e-14
5876.11 3.8865e-14
5878.84 4.0776e-14
5881.57 3.8687e-14
5884.3 3.7554e-14
5887.03 3.404e-14
5889.76 3.3859e-14
5892.49 3.7583e-14
5895.22 3.65e-14
5897.95 3.3817e-14
5900.68 3.3988e-14
5903.41 3.4313e-14
5906.14 3.2052e-14
5908.87 3.2652e-14
5911.6 3.7378e-14
5914.33 3.4937e-14
5917.06 3.4814e-14
5919.79 3.5028e-14
5922.52 3.516e-14
5925.26 3.6668e-14
5927.99 3.4952e-14
5930.72 3.4753e-14
5933.45 3.4328e-14
5936.18 3.4027e-14
5938.91 3.5853e-14
5941.64 3.6313e-14
5944.37 3.4403e-14
5947.1 3.5042e-14
5949.83 3.5369e-14
5952.56 3.5021e-14
5955.29 3.3455e-14
5958.02 3.5639e-14
5960.75 3.5399e-14
5963.48 3.6347e-14
5966.21 3.5281e-14
5968.94 3.5648e-14
5971.67 3.6495e-14
5974.4 3.4126e-14
5977.14 3.2885e-14
5979.87 3.2907e-14
5982.6 3.146e-14
5985.33 3.3871e-14
5988.06 3.2522e-14
5990.79 3.1329e-14
5993.52 3.3457e-14
5996.25 3.3418e-14
5998.98 3.5156e-14
6001.71 3.4722e-14
6004.44 3.5308e-14
6007.17 3.6168e-14
6009.9 3.4642e-14
6012.63 3.4802e-14
6015.36 3.5464e-14
6018.09 3.477e-14
6020.82 3.4262e-14
6023.55 3.4398e-14
6026.28 3.3011e-14
6029.01 3.4572e-14
6031.75 3.5931e-14
6034.48 3.3355e-14
6037.21 3.3944e-14
6039.94 3.5074e-14
6042.67 3.4372e-14
6045.4 3.4856e-14
6048.13 3.478e-14
6050.86 3.527e-14
6053.59 3.5764e-14
6056.32 3.6886e-14
6059.05 3.541e-14
6061.78 3.5094e-14
6064.51 3.4391e-14
6067.24 3.2301e-14
6069.97 3.2583e-14
6072.7 3.312e-14
6075.43 3.4355e-14
6078.16 3.5431e-14
6080.89 3.5983e-14
6083.62 3.622e-14
6086.36 3.5439e-14
6089.09 3.709e-14
6091.82 3.4995e-14
6094.55 3.4806e-14
6097.28 3.5956e-14
6100.01 3.6177e-14
6102.74 3.5742e-14
6105.47 3.5374e-14
6108.2 3.3039e-14
6110.93 3.3747e-14
6113.66 3.6271e-14
6116.39 3.5081e-14
6119.12 3.3059e-14
6121.85 3.2596e-14
6124.58 3.2203e-14
6127.31 3.4678e-14
6130.04 3.3568e-14
6132.77 3.1903e-14
6135.5 3.4685e-14
6138.24 3.4972e-14
6140.97 3.2943e-14
6143.7 3.3184e-14
6146.43 3.3976e-14
6149.16 3.6305e-14
6151.89 3.6923e-14
6154.62 3.1573e-14
6157.35 3.4034e-14
6160.08 3.5569e-14
6162.81 3.1749e-14
6165.54 3.1514e-14
6168.27 3.0457e-14
6171.0 3.0875e-14
6173.73 3.2297e-14
6176.46 3.3374e-14
6179.19 3.5375e-14
6181.92 3.3431e-14
6184.65 3.2523e-14
6187.38 3.5542e-14
6190.11 3.5047e-14
6192.85 3.4801e-14
6195.58 3.1851e-14
6198.31 3.3226e-14
6201.04 3.4207e-14
6203.77 3.5079e-14
6206.5 3.3229e-14
6209.23 3.2957e-14
6211.96 3.6212e-14
6214.69 3.7843e-14
6217.42 3.3198e-14
6220.15 3.1552e-14
6222.88 3.3025e-14
6225.61 3.3269e-14
6228.34 3.1043e-14
6231.07 3.1788e-14
6233.8 3.2061e-14
6236.53 3.1221e-14
6239.26 3.2515e-14
6241.99 3.0696e-14
6244.72 3.2235e-14
6247.46 3.1562e-14
6250.19 3.3302e-14
6252.92 3.2035e-14
6255.65 3.2415e-14
6258.38 3.376e-14
6261.11 3.3787e-14
6263.84 3.3401e-14
6266.57 3.0821e-14
6269.3 3.3544e-14
6272.03 3.3688e-14
6274.76 3.3727e-14
6277.49 3.4767e-14
6280.22 3.4034e-14
6282.95 3.2959e-14
6285.68 3.2286e-14
6288.41 3.285e-14
6291.14 3.0458e-14
6293.87 3.0081e-14
6296.6 3.1299e-14
6299.34 3.2886e-14
6302.07 3.304e-14
6304.8 3.6645e-14
6307.53 3.583e-14
6310.26 3.3017e-14
6312.99 3.0717e-14
6315.72 2.9858e-14
6318.45 3.6838e-14
6321.18 3.2595e-14
6323.91 3.4124e-14
6326.64 3.2689e-14
6329.37 3.3004e-14
6332.1 3.4436e-14
6334.83 3.3131e-14
6337.56 3.3246e-14
6340.29 3.3497e-14
6343.02 3.4547e-14
6345.75 3.3182e-14
6348.48 3.4176e-14
6351.21 3.654e-14
6353.95 3.427e-14
6356.68 3.3909e-14
6359.41 3.4666e-14
6362.14 3.5133e-14
6364.87 3.4398e-14
6367.6 3.4242e-14
6370.33 3.4031e-14
6373.06 3.4055e-14
6375.79 3.1555e-14
6378.52 3.0791e-14
6381.25 3.7346e-14
6383.98 3.1142e-14
6386.71 3.3512e-14
6389.44 3.62e-14
6392.17 3.2841e-14
6394.9 3.6003e-14
6397.63 3.032e-14
6400.36 3.1984e-14
6403.09 3.5582e-14
6405.83 3.5986e-14
6408.56 3.326e-14
6411.29 3.573e-14
6414.02 3.402e-14
6416.75 3.5565e-14
6419.48 3.513e-14
6422.21 2.8172e-14
6424.94 3.0982e-14
6427.67 3.2348e-14
6430.4 2.602e-14
6433.13 3.0674e-14
6435.86 3.1335e-14
6438.59 3.373e-14
6441.32 3.2044e-14
6444.05 3.6124e-14
6446.78 3.1483e-14
6449.51 3.3333e-14
6452.24 3.4293e-14
6454.97 3.6434e-14
6457.7 3.5195e-14
6460.44 3.6385e-14
6463.17 3.3506e-14
6465.9 3.3384e-14
6468.63 3.1687e-14
6471.36 2.8552e-14
6474.09 3.0178e-14
6476.82 3.3442e-14
6479.55 3.4899e-14
6482.28 3.3606e-14
6485.01 3.4606e-14
6487.74 3.4661e-14
6490.47 3.366e-14
6493.2 3.0233e-14
6495.93 2.8706e-14
6498.66 3.3356e-14
6501.39 3.3581e-14
6504.12 3.3176e-14
6506.85 3.7043e-14
6509.58 3.3485e-14
6512.31 3.1496e-14
6515.05 3.3565e-14
6517.78 3.3238e-14
6520.51 3.2425e-14
6523.24 3.3042e-14
6525.97 3.2746e-14
6528.7 3.2656e-14
6531.43 3.3858e-14
6534.16 3.1029e-14
6536.89 3.259e-14
6539.62 3.1981e-14
6542.35 3.5315e-14
6545.08 3.952e-14
6547.81 4.7873e-14
6550.54 5.2428e-14
6553.27 5.1761e-14
6556.0 5.0175e-14
6558.73 6.5054e-14
6561.46 1.0225e-13
6564.19 1.3863e-13
6566.93 1.4105e-13
6569.66 9.9792e-14
6572.39 5.8336e-14
6575.12 4.1049e-14
6577.85 4.0384e-14
6580.58 5.3606e-14
6583.31 7.5787e-14
6586.04 9.0897e-14
6588.77 8.0429e-14
6591.5 5.7532e-14
6594.23 4.0424e-14
6596.96 3.634e-14
6599.69 3.3958e-14
6602.42 3.0029e-14
6605.15 3.2328e-14
6607.88 3.1904e-14
6610.61 3.2502e-14
6613.34 3.405e-14
6616.07 3.3336e-14
6618.8 3.4316e-14
6621.54 3.5917e-14
6624.27 3.1096e-14
6627.0 3.422e-14
6629.73 3.4947e-14
6632.46 3.3628e-14
6635.19 3.3675e-14
6637.92 3.2504e-14
6640.65 3.2659e-14
6643.38 3.398e-14
6646.11 3.2159e-14
6648.84 3.2331e-14
6651.57 3.3518e-14
6654.3 3.504e-14
6657.03 3.1316e-14
6659.76 3.4924e-14
6662.49 3.2822e-14
6665.22 3.2342e-14
6667.95 3.2899e-14
6670.68 3.2356e-14
6673.41 3.3841e-14
6676.15 3.3991e-14
6678.88 3.3884e-14
6681.61 3.6257e-14
6684.34 3.4116e-14
6687.07 3.3789e-14
6689.8 3.2052e-14
6692.53 3.2517e-14
6695.26 3.433e-14
6697.99 3.5479e-14
6700.72 3.5436e-14
6703.45 3.3299e-14
6706.18 3.0512e-14
6708.91 3.0043e-14
6711.64 3.5655e-14
6714.37 4.2217e-14
6717.1 4.7284e-14
6719.83 4.8134e-14
6722.56 4.2766e-14
6725.29 4.0536e-14
6728.03 4.0851e-14
6730.76 4.3025e-14
6733.49 4.7129e-14
6736.22 4.5263e-14
6738.95 3.7969e-14
6741.68 3.21e-14
6744.41 3.3202e-14
6747.14 3.0927e-14
6749.87 2.8872e-14
6752.6 3.2902e-14
6755.33 2.9107e-14
6758.06 2.857e-14
6760.79 3.0166e-14
6763.52 3.1758e-14
6766.25 3.1296e-14
6768.98 3.2421e-14
6771.71 3.0726e-14
6774.44 3.3753e-14
6777.17 3.1713e-14
6779.9 3.5516e-14
6790.65 3.3352e-14
6806.3 3.3194e-14
6821.99 3.3264e-14
6837.72 3.3182e-14
6853.48 3.3024e-14
6869.28 3.2267e-14
6885.11 3.271e-14
6900.98 3.2856e-14
6916.89 3.2926e-14
6932.84 3.2769e-14
6948.82 3.3142e-14
6964.84 3.2984e-14
6980.89 3.3131e-14
6996.99 3.2821e-14
7013.12 3.259e-14
7029.28 3.2734e-14
7045.49 3.3184e-14
7061.73 3.3485e-14
7078.01 3.2793e-14
7094.33 3.2711e-14
7110.68 3.2406e-14
7127.07 3.2475e-14
7143.5 3.2097e-14
7159.97 3.2018e-14
7176.47 3.1283e-14
7193.01 2.9801e-14
7209.6 3.035e-14
7226.22 3.2068e-14
7242.87 3.1405e-14
7259.57 3.1183e-14
7276.31 3.2273e-14
7293.08 3.2045e-14
7309.89 3.1819e-14
7326.74 3.2404e-14
7343.63 3.3001e-14
7360.56 3.2392e-14
7377.53 3.2761e-14
7394.54 3.1936e-14
7411.58 3.2449e-14
7428.67 3.1924e-14
7445.79 3.2587e-14
7462.96 3.2731e-14
7480.16 3.2574e-14
7497.41 3.2493e-14
7514.69 3.2413e-14
7532.01 3.2332e-14
7549.38 3.27e-14
7566.78 3.2245e-14
7584.22 3.2463e-14
7601.71 3.1645e-14
7619.23 3.1493e-14
7636.79 3.156e-14
7654.4 3.1481e-14
7672.04 2.9374e-14
7689.73 3.0541e-14
7707.46 2.9635e-14
7725.22 3.011e-14
7743.03 3.0735e-14
7760.88 3.0099e-14
7778.77 2.9748e-14
7796.7 2.988e-14
7814.67 3.0359e-14
7832.69 3.0564e-14
7850.75 3.0558e-14
7868.84 3.0693e-14
7886.99 3.0405e-14
7905.17 3.019e-14
7923.39 2.977e-14
7941.66 2.9491e-14
7959.96 2.9621e-14
7978.31 2.9958e-14
7996.7 2.9883e-14
8015.14 2.9946e-14
8033.62 2.9802e-14
8052.13 3.0141e-14
8070.7 3.0344e-14
8089.3 3.006e-14
8107.95 2.971e-14
8126.64 3.0047e-14
8145.37 3.0041e-14
8164.15 2.9351e-14
8182.97 2.9617e-14
8201.84 2.854e-14
8220.74 2.9536e-14
8239.69 2.8007e-14
8258.69 3.0212e-14
8277.73 3.0275e-14
8296.81 2.8707e-14
8315.94 2.89e-14
8335.1 2.8762e-14
8354.32 2.9088e-14
8373.58 2.8949e-14
8392.88 2.8284e-14
8412.23 2.8936e-14
8431.62 2.9064e-14
8451.06 2.8527e-14
8470.54 2.8587e-14
8490.06 2.8713e-14
8509.64 2.5292e-14
8529.25 2.8306e-14
8548.91 2.3003e-14
8568.63 2.849e-14
8588.38 2.855e-14
8608.17 2.7196e-14
8628.02 2.7952e-14
8647.91 2.8075e-14
8667.84 2.5955e-14
8687.82 2.6799e-14
8707.85 2.7041e-14
8727.93 2.7411e-14
8748.04 2.7092e-14
8768.21 2.7148e-14
8788.42 2.7583e-14
8808.68 2.764e-14
8828.99 2.7444e-14
8849.34 2.6937e-14
8869.74 2.566e-14
8890.19 2.6433e-14
8910.68 2.6672e-14
8931.22 2.6789e-14
8951.81 2.6476e-14
8972.45 2.5163e-14
8993.13 2.5684e-14
9013.86 2.4749e-14
9034.65 2.503e-14
9055.47 2.7756e-14
9076.34 2.644e-14
9097.27 2.5186e-14
9118.24 2.5945e-14
9139.26 2.4488e-14
9160.33 2.4314e-14
9181.45 2.3646e-14
9202.61 2.4983e-14
9223.82 2.4409e-14
9245.09 2.4743e-14
9266.4 2.5313e-14
9287.76 2.4224e-14
9309.17 2.3558e-14
9330.63 2.547e-14
9352.14 2.5347e-14
9373.7 2.5109e-14
9395.31 2.5218e-14
9416.97 2.4866e-14
9438.67 2.5033e-14
9460.44 2.4854e-14
9482.24 2.4791e-14
9504.1 2.4615e-14
9526.01 2.4327e-14
9547.97 2.3334e-14
9569.98 2.4148e-14
9592.04 2.4309e-14
9614.15 2.4191e-14
9636.32 2.413e-14
9658.53 2.3958e-14
9680.8 2.3897e-14
9703.11 2.3781e-14
9725.48 2.3666e-14
9747.9 2.3551e-14
9770.37 2.3545e-14
9792.89 2.3377e-14
9815.47 2.3425e-14
9838.1 2.3365e-14
9860.77 2.3306e-14
9883.5 2.3086e-14
9906.29 2.2974e-14
9929.13 2.2916e-14
9952.01 2.2857e-14
9974.95 2.2799e-14
9997.95 2.2688e-14
10021.0 2.2268e-14
10067.26 2.185e-14
10113.72 2.2041e-14
10183.83 2.1822e-14
10230.83 2.166e-14
10278.05 2.1549e-14
10301.75 2.1395e-14
10493.28 2.0624e-14
10688.36 1.9758e-14
10912.16 1.8869e-14
11089.47 1.8482e-14
11295.65 1.7813e-14
11505.65 1.7368e-14
11692.6 1.6817e-14
11909.98 1.6246e-14
12103.5 1.5767e-14
12300.17 1.5372e-14
12500.03 1.4953e-14
12703.13 1.4546e-14
12909.54 1.4117e-14
13089.13 1.3796e-14
13301.81 1.342e-14
13486.86 1.3175e-14
13706.01 1.2875e-14
13896.68 1.2582e-14
14090.0 1.2295e-14
14286.01 1.2043e-14
14484.75 1.1905e-14
14686.26 1.1634e-14
14890.56 1.1501e-14
15097.71 1.1343e-14
15307.75 1.1291e-14
15484.99 1.1188e-14
15700.41 1.0933e-14
15882.21 1.066e-14
16103.16 1.0586e-14
16289.63 1.0489e-14
16516.24 1.0133e-14
16707.48 9.9024e-15
16900.94 9.5662e-15
17096.65 9.3269e-15
17294.63 8.9277e-15
17494.87 8.7245e-15
17697.46 8.4477e-15
17902.39 8.1986e-15
18109.7 7.8657e-15
18319.38 7.6867e-15
18488.9 7.46e-15
18702.99 7.1407e-15
18919.57 6.9781e-15
19094.62 6.8193e-15
19315.73 6.5726e-15
19494.46 6.3058e-15
19720.18 6.1622e-15
19902.66 5.9943e-15
20086.82 5.8579e-15
20319.4 5.659e-15
20507.42 5.5429e-15
20697.16 5.3795e-15
20888.68 5.2208e-15
21081.97 5.102e-15
21277.02 4.9629e-15
21523.4 4.8388e-15
21722.57 4.6531e-15
21923.55 4.5681e-15
22075.53 4.4436e-15
22279.78 4.3225e-15
22485.94 4.2144e-15
22694.01 4.0996e-15
22903.98 3.7822e-15
23115.92 3.7475e-15
23276.14 3.3942e-15
23491.52 3.2564e-15
23708.87 3.279e-15
23873.22 3.0461e-15
24094.13 2.9836e-15
24317.05 2.963e-15
24485.63 2.8037e-15
24712.17 2.7973e-15
24883.48 2.5512e-15
25113.71 2.522e-15
25287.81 2.5104e-15
25521.77 2.4646e-15
25698.7 2.4589e-15
25876.82 2.3974e-15
26116.27 2.3699e-15
26297.28 2.3054e-15
26479.58 2.2842e-15
26724.58 2.2271e-15
26909.84 2.1965e-15
27096.36 2.1564e-15
27284.19 2.1122e-15
27473.31 2.0737e-15
27727.53 2.0311e-15
27919.71 1.9987e-15
28113.26 1.9577e-15
28308.11 1.9175e-15
28504.35 1.8782e-15
28701.92 1.827e-15
28900.89 1.8019e-15
29101.21 1.765e-15
29302.91 1.7248e-15
29506.05 1.6894e-15
29710.56 1.6548e-15
29916.52 1.6208e-15
30123.88 1.5876e-15
30332.71 1.5479e-15
30472.7 1.5231e-15
30683.92 1.4919e-15
30896.63 1.4613e-15
31110.78 1.4346e-15
31326.44 1.4084e-15
31471.03 1.3796e-15
31689.2 1.3544e-15
31908.84 1.3297e-15
32130.04 1.3084e-15
32278.33 1.2934e-15
32502.06 1.2934e-15
32727.37 1.3327e-15
32878.42 1.4816e-15
33106.31 1.4579e-15
33335.81 1.2582e-15
33489.67 1.1715e-15
33721.83 1.1239e-15
33877.47 1.0908e-15
34112.28 1.0635e-15
34269.77 1.0393e-15
34507.29 1.018e-15
34666.6 9.971e-16
34906.88 9.7665e-16
35067.99 9.5662e-16
35311.09 9.37e-16
35474.07 9.199e-16
35719.98 9.0103e-16
35884.85 8.8458e-16
36133.57 8.6844e-16
36300.38 8.5259e-16
36467.93 8.351e-16
36720.69 8.1986e-16
36890.22 8.0304e-16
37060.48 7.8839e-16
37317.35 7.74e-16
37489.63 7.5638e-16
37662.66 7.4772e-16
37923.71 7.3407e-16
38098.79 7.2067e-16
38274.63 7.0915e-16
38539.96 6.9781e-16
38717.84 6.8508e-16
38896.54 6.7412e-16
39076.06 6.6182e-16
39256.46 6.5124e-16
39528.55 6.3935e-16
39711.04 6.3058e-16
39894.32 6.1764e-16
40078.46 6.0917e-16
40263.44 5.9943e-16
40542.55 5.8849e-16
40729.67 5.8175e-16
40917.66 5.7377e-16
41106.56 5.646e-16
41296.29 5.5685e-16
41486.89 5.4795e-16
41678.41 5.3919e-16
41870.77 5.3301e-16
42064.03 5.2449e-16
42258.22 5.1849e-16
42453.26 5.1137e-16
42747.51 5.0436e-16
42944.86 4.8611e-16
43143.07 4.7069e-16
43342.19 4.7069e-16
43542.29 4.5367e-16
43743.25 4.4539e-16
43945.15 4.4029e-16
44147.97 4.2534e-16
44249.79 4.2241e-16
44454.02 4.1662e-16
44659.2 4.0433e-16
44865.37 4.062e-16
45072.44 3.9878e-16
45280.47 3.9061e-16
45489.46 3.8971e-16
45699.47 3.8702e-16
45910.39 3.7735e-16
46122.29 3.7909e-16
46335.21 3.7389e-16
46549.07 3.7046e-16
46656.37 3.6876e-16
46871.71 3.6622e-16
47088.1 3.6203e-16
47305.43 3.6286e-16
47523.77 3.5871e-16
47743.16 3.5624e-16
47853.21 3.5378e-16
48074.08 3.4893e-16
48295.96 3.5054e-16
48518.92 3.4733e-16
48742.86 3.4414e-16
48855.22 3.4177e-16
49080.7 3.3942e-16
49307.29 3.3786e-16
49534.87 3.3554e-16
49649.05 3.3479e-16
49878.25 3.3409e-16
50108.46 3.3494e-16
50339.74 3.3501e-16
50455.77 3.3274e-16
50688.71 3.3358e-16
50805.55 3.3439e-16
50922.66 3.3443e-16
51040.04 3.3369e-16
51157.69 3.3373e-16
51275.61 3.3376e-16
51393.86 3.338e-16
51512.33 3.3384e-16
51631.07 3.3541e-16
51750.08 3.3622e-16
51869.37 3.3626e-16
51988.93 3.3552e-16
52108.77 3.3633e-16
52228.94 3.3637e-16
52349.33 3.364e-16
52470.0 3.3721e-16
52590.95 3.3881e-16
52712.17 3.3962e-16
52833.68 3.3966e-16
52955.52 3.3891e-16
53077.59 3.3973e-16
53199.93 3.4055e-16
53322.57 3.4137e-16
53445.48 3.4219e-16
53568.67 3.4302e-16
53692.15 3.4384e-16
53815.97 3.4467e-16
53940.03 3.463e-16
54064.36 3.4713e-16
54188.98 3.4797e-16
54313.89 3.48e-16
54439.09 3.4964e-16
54564.58 3.5129e-16
54690.41 3.5214e-16
54816.48 3.5299e-16
54942.83 3.5465e-16
55069.48 3.5551e-16
55196.42 3.5718e-16
55323.65 3.5969e-16
55451.24 3.6056e-16
55579.05 3.6143e-16
55707.17 3.6397e-16
55835.58 3.6653e-16
55964.28 3.6741e-16
56093.29 3.6999e-16
56222.59 3.7174e-16
56352.24 3.7349e-16
56482.14 3.7612e-16
56612.33 3.7876e-16
56742.83 3.8142e-16
56873.63 3.8322e-16
57004.72 3.8591e-16
57136.19 3.9042e-16
57267.89 3.9317e-16
57399.9 3.9684e-16
57532.21 3.9963e-16
57664.82 4.0337e-16
57797.74 4.0808e-16
57930.97 4.1284e-16
58064.57 4.1766e-16
58198.41 4.2254e-16
58332.56 4.2747e-16
58467.03 4.3246e-16
58601.79 4.3953e-16
58736.88 4.4569e-16
58872.27 4.5402e-16
59009.29 4.1566e-16
59309.65 4.1216e-16
59609.9 4.5391e-16
59910.16 5.2811e-16
60210.42 5.7023e-16
60510.68 5.7212e-16
60811.03 6.4123e-16
61111.29 7.7118e-16
61411.54 1.1108e-15
61711.8 1.5181e-15
62012.06 1.6933e-15
62312.42 1.5626e-15
62612.67 1.2823e-15
62912.93 1.0781e-15
63213.18 9.4312e-16
63513.44 8.2524e-16
63813.8 6.9932e-16
64114.05 6.0894e-16
64414.31 5.2342e-16
64714.57 4.9114e-16
65014.83 5.6478e-16
65315.18 4.9393e-16
65615.43 4.8394e-16
65915.69 5.2897e-16
66215.95 5.2422e-16
66516.21 4.9854e-16
66816.56 5.0047e-16
67116.82 5.1623e-16
67417.08 5.1037e-16
67717.33 5.0262e-16
68017.59 4.9354e-16
68317.95 5.1906e-16
68618.2 5.113e-16
68918.46 5.4694e-16
69218.72 6.1317e-16
69518.98 9.5593e-16
69819.33 9.8363e-16
70119.59 6.7806e-16
70419.84 5.8247e-16
70720.1 5.8219e-16
71020.35 6.3951e-16
71320.71 6.5836e-16
71620.97 6.7273e-16
71921.23 6.5927e-16
72221.48 6.8649e-16
72521.74 7.2693e-16
72822.09 7.5763e-16
73122.35 8.0119e-16
73422.61 8.9631e-16
73722.87 9.0886e-16
74023.12 1.0228e-15
74323.48 1.1256e-15
74623.73 1.156e-15
74923.99 1.2234e-15
75224.24 1.3063e-15
75824.76 1.6376e-15
76425.37 1.5759e-15
77025.88 1.4549e-15
77626.4 1.3499e-15
78227.01 1.2953e-15
78827.53 1.2061e-15
79428.14 1.0692e-15
80028.65 9.572e-16
80629.17 7.9917e-16
81229.78 7.2235e-16
81830.29 7.0595e-16
82430.81 7.1804e-16
83031.42 7.0708e-16
83631.93 7.2007e-16
84232.44 7.1083e-16
84833.06 7.8615e-16
85433.57 8.3856e-16
86034.19 8.3078e-16
86634.7 7.5219e-16
87235.22 6.3898e-16
87835.83 5.9328e-16
88436.34 4.9503e-16
89036.86 4.8413e-16
89637.46 5.5075e-16
90237.98 4.6042e-16
90838.49 4.05e-16
91439.1 3.9637e-16
92039.62 3.732e-16
92640.23 3.9005e-16
93240.74 3.7251e-16
93841.26 3.6575e-16
94441.87 3.7199e-16
95042.38 3.7878e-16
95642.9 3.6762e-16
96243.51 3.8668e-16
96844.02 3.7211e-16
97444.53 3.5396e-16
98045.15 3.4111e-16
98645.67 3.3785e-16
99246.28 3.3937e-16
99846.79 3.3814e-16
100447.31 3.3274e-16
101047.92 3.2394e-16
101648.43 3.3147e-16
102248.95 3.3112e-16
102849.56 3.2882e-16
103450.07 3.3148e-16
104050.58 3.455e-16
104651.2 3.7462e-16
105251.71 3.7878e-16
105852.33 3.7781e-16
106452.83 3.69e-16
107053.35 3.7435e-16
107653.97 3.7697e-16
108254.48 3.8596e-16
108854.99 3.9414e-16
109455.6 4.2251e-16
110056.12 4.6769e-16
110656.64 4.8921e-16
111257.24 6.0716e-16
111857.76 8.0643e-16
112458.37 8.717e-16
113058.88 7.5246e-16
113659.4 6.5963e-16
114260.01 5.7956e-16
114860.52 5.2289e-16
115461.04 5.043e-16
116061.65 4.8507e-16
116662.16 4.8343e-16
117262.67 4.7429e-16
117863.29 4.7243e-16
118463.8 4.7672e-16
119064.42 4.9391e-16
119664.93 4.9367e-16
120265.44 4.9641e-16
120866.06 4.9428e-16
121466.57 4.8915e-16
122067.09 4.9496e-16
122667.69 5.1649e-16
123268.21 5.2585e-16
123868.73 5.317e-16
124469.33 5.4228e-16
125069.85 5.5988e-16
125670.46 5.7483e-16
126270.97 5.9678e-16
126871.49 6.5263e-16
127472.1 9.7733e-16
128072.61 1.1963e-15
128673.13 7.635e-16
129273.75 5.1473e-16
129874.25 4.803e-16
130474.76 4.6376e-16
131075.38 4.6272e-16
131675.89 4.7457e-16
132276.4 4.6685e-16
132877.02 4.5809e-16
133477.53 4.795e-16
134078.15 4.703e-16
134678.66 4.7854e-16
135279.17 4.7423e-16
135879.79 4.7611e-16
136480.3 4.7611e-16
137080.81 4.7838e-16
137681.43 4.7175e-16
138281.94 4.7542e-16
138882.45 4.8272e-16
139483.07 4.9901e-16
140083.58 4.8165e-16
140684.2 4.8986e-16
141284.71 4.7876e-16
141885.22 4.7242e-16
142485.84 4.5577e-16
143086.35 4.5391e-16
143686.86 4.3886e-16
144740.93 4.6557e-16
145581.74 4.7296e-16
146422.54 4.7908e-16
147263.33 4.7847e-16
148104.04 4.8134e-16
148944.83 4.8908e-16
149785.63 4.8071e-16
150626.33 4.779e-16
151467.12 4.8462e-16
152307.92 4.8569e-16
153148.62 4.9364e-16
153989.42 5.0931e-16
154830.23 5.4293e-16
155670.93 5.6631e-16
156511.73 5.204e-16
157352.52 5.1144e-16
158193.21 5.3088e-16
159034.02 5.4792e-16
159874.81 5.5398e-16
160715.61 5.6045e-16
161556.31 5.6343e-16
162397.12 5.8138e-16
163237.9 6.2852e-16
164078.62 6.5256e-16
164919.4 6.3501e-16
165760.19 6.1533e-16
166600.91 6.2162e-16
167441.69 6.3452e-16
168282.5 6.3261e-16
169123.19 6.4392e-16
169964.0 6.7165e-16
170804.8 6.5373e-16
171645.48 6.4003e-16
172486.29 6.5226e-16
173327.09 6.5823e-16
174167.88 6.4664e-16
175008.59 6.2985e-16
175849.4 6.2508e-16
176690.18 6.2045e-16
177530.89 6.2747e-16
178371.69 6.2725e-16
179212.48 6.292e-16
180053.19 6.2588e-16
180893.97 6.2915e-16
181734.78 6.3084e-16
182575.48 6.3738e-16
183416.27 6.371e-16
184257.07 6.3672e-16
185097.76 6.4062e-16
185938.57 7.8921e-16
186779.38 9.8148e-16
187620.17 8.4728e-16
188460.86 6.721e-16
189301.67 6.3012e-16
190142.45 6.1885e-16
190983.17 6.2602e-16
191823.96 6.3267e-16
192664.76 6.314e-16
193505.46 6.2689e-16
194346.27 6.2399e-16
195187.05 6.1867e-16
196027.75 6.1821e-16
196868.55 6.0304e-16
197709.34 6.0621e-16
198550.06 6.0856e-16
199390.84 6.0125e-16
200231.65 5.9637e-16
201072.45 5.9021e-16
201913.13 5.9365e-16
202753.95 5.8568e-16
204435.44 5.994e-16
206117.03 5.8392e-16
207798.55 6.0421e-16
209480.03 5.5475e-16
211161.62 5.7806e-16
212843.12 5.967e-16
214524.72 5.6458e-16
216206.22 5.7235e-16
217887.72 5.8957e-16
219569.32 5.8853e-16
221250.82 5.8621e-16
222932.3 5.7955e-16
224613.89 5.8664e-16
226295.41 5.9186e-16
227977.0 5.8757e-16
229658.49 5.8171e-16
231339.99 5.8785e-16
233021.6 5.8418e-16
234703.1 5.9213e-16
236384.59 5.9455e-16
238066.17 5.8725e-16
239747.68 5.6444e-16
241429.27 5.5711e-16
243110.77 5.4267e-16
244792.27 5.4512e-16
246473.87 5.4531e-16
248155.37 5.412e-16
249836.87 5.2649e-16
251518.47 5.2204e-16
253199.97 5.2271e-16
254881.55 5.2291e-16
256563.04 5.2082e-16
258244.54 5.2821e-16
259926.15 5.2315e-16
261607.64 5.1854e-16
263289.14 5.1293e-16
264970.73 5.137e-16
266652.23 5.2462e-16
268333.82 5.2477e-16
270015.32 5.2157e-16
271696.85 5.2072e-16
273378.44 5.1302e-16
275059.9 5.0959e-16
276741.4 5.1721e-16
278423.02 5.1693e-16
280104.52 5.1614e-16
281786.11 5.0902e-16
283467.61 5.1034e-16
285149.11 5.0763e-16
286830.7 4.9516e-16
288512.19 4.9025e-16
290193.69 4.8667e-16
291875.28 4.9412e-16
293556.78 5.0027e-16
295238.37 4.9677e-16
296919.9 5.0467e-16
298601.4 4.9793e-16
300282.99 4.948e-16
301964.48 4.9084e-16
303645.98 4.9078e-16
305327.57 4.9629e-16
307009.07 4.9226e-16
308690.66 4.8795e-16
310372.16 4.9425e-16
312053.65 4.8892e-16
313735.25 4.9426e-16
315416.77 4.9601e-16
317098.27 4.947e-16
318779.86 4.9524e-16
320461.33 5.0243e-16
322142.95 5.1455e-16
323824.45 5.2468e-16
325505.94 5.2144e-16
327187.54 5.2087e-16
328869.03 5.3126e-16
330550.53 5.4337e-16
332232.15 5.7841e-16
333913.65 7.0133e-16
335595.21 5.6714e-16
337276.71 5.6277e-16
338958.23 5.3684e-16
340639.79 5.3115e-16
342321.29 5.2656e-16
344002.79 5.2961e-16
345684.41 5.8159e-16
347365.88 6.1258e-16
