# col1 col2
# An Atlas of Galaxy Spectral Energy Distributions from the Ultraviolet to the Mid-Infrared
# Brown et al. (2014)
# http://dx.doi.org/10.5072/03/529D3551F0117
# 
# Column 1 : Restframe Wavelength (Angstrom)
# Column 2 : Flux per unit wavelength (ergs/s/cm^2/Angstrom)
# Column 3 : Observed wavelength (Angstrom)
# Column 4 : Source (0 = model, 1 = Optical Spectrum, 2 = Akari, 3 = Spitzer IRS)
# 
102.0 3.3848e-24
103.9 4.4314e-24
106.08 5.9777e-24
108.05 8.1384e-24
110.06 1.3138e-23
113.93 2.1804e-23
117.93 3.377e-23
120.95 1.229e-22
124.92 1.8178e-22
126.95 2.1554e-22
128.12 2.3743e-22
131.11 3.0029e-22
132.01 3.6019e-22
133.85 4.1738e-22
136.97 5.7748e-22
140.16 7.1209e-22
143.09 1.7082e-21
147.1 4.0044e-21
150.88 5.0412e-21
155.1 6.3612e-21
159.08 8.0082e-21
162.04 9.4305e-21
165.81 1.1736e-20
170.07 1.4274e-20
172.83 1.654e-20
176.86 1.9886e-20
180.14 2.2727e-20
181.81 2.4805e-20
186.05 2.9345e-20
190.82 3.5937e-20
193.92 4.0601e-20
197.98 4.7156e-20
202.12 5.4643e-20
204.94 6.0889e-20
210.19 6.9428e-20
216.08 8.7607e-20
220.1 9.9664e-20
223.16 1.0828e-19
226.79 1.2261e-19
229.94 1.9749e-19
234.22 3.4398e-19
240.23 4.7374e-19
245.82 4.995e-19
252.13 5.8148e-19
256.81 5.2667e-19
259.79 6.3905e-19
264.01 7.1046e-19
268.92 7.6127e-19
273.92 8.1196e-19
279.01 8.6405e-19
284.2 9.2159e-19
290.15 9.4741e-19
296.22 1.0317e-18
301.04 1.0606e-18
308.05 1.1629e-18
318.14 1.3108e-18
327.81 1.434e-18
337.77 1.5472e-18
348.03 1.6578e-18
356.96 1.7682e-18
366.12 1.8991e-18
374.64 1.9977e-18
385.14 2.0443e-18
395.02 2.2261e-18
405.15 2.358e-18
413.64 2.4465e-18
422.3 2.5092e-18
430.15 2.5736e-18
441.18 2.7073e-18
451.46 2.7896e-18
459.85 2.848e-18
469.48 2.9345e-18
480.42 3.0376e-18
490.48 3.0799e-18
499.6 3.2102e-18
506.55 3.4319e-18
512.41 5.0996e-18
519.54 5.291e-18
530.42 5.5149e-18
540.28 5.4518e-18
550.33 6.7071e-18
560.56 7.7364e-18
569.67 8.6206e-18
580.26 8.4828e-18
589.68 1.0035e-17
600.65 1.0436e-17
610.41 1.1872e-17
620.33 1.3821e-17
630.4 1.5015e-17
640.65 1.5507e-17
649.56 1.7601e-17
658.6 1.8816e-17
664.69 2.0116e-17
675.49 2.0823e-17
684.89 2.0967e-17
694.42 2.6579e-17
705.7 2.5855e-17
715.52 3.1299e-17
725.47 3.3002e-17
735.56 3.4717e-17
745.8 3.9404e-17
754.43 4.2514e-17
764.93 4.5555e-17
775.57 5.0296e-17
784.55 5.4769e-17
795.46 5.8015e-17
804.67 6.1311e-17
815.87 6.4348e-17
825.31 7.1209e-17
834.87 6.1311e-17
844.54 7.7364e-17
854.32 8.101e-17
864.21 8.8011e-17
874.22 9.5397e-17
884.34 1.0484e-16
894.58 1.1182e-16
904.94 1.139e-16
915.42 1.8346e-16
926.02 1.2518e-15
934.59 2.8611e-15
945.41 6.0749e-15
954.16 9.807e-15
965.21 1.2093e-14
974.14 2.0919e-15
985.42 1.3108e-14
994.53 1.3569e-14
1006.05 1.921e-14
1015.36 1.728e-14
1024.75 5.4643e-15
1034.24 1.1549e-14
1043.81 2.515e-14
1055.89 2.6034e-14
1065.66 2.1259e-14
1075.52 2.5559e-14
1085.47 2.0302e-14
1095.52 2.6887e-14
1105.66 2.6702e-14
1115.89 2.5914e-14
1126.21 2.4577e-14
1134.02 3.0237e-14
1144.51 2.7576e-14
1155.1 2.9753e-14
1165.79 3.1662e-14
1173.87 2.4521e-14
1184.73 3.087e-14
1195.69 1.8558e-14
1203.98 1.3917e-14
1215.12 6.4645e-15
1226.36 1.744e-14
1234.87 3.1662e-14
1246.29 3.652e-14
1254.93 3.5119e-14
1263.63 2.8349e-14
1275.32 3.9132e-14
1284.16 4.1547e-14
1296.04 3.3615e-14
1305.03 3.2699e-14
1314.07 4.0882e-14
1326.23 3.9586e-14
1335.43 3.4877e-14
1344.68 4.2222e-14
1354.0 4.0977e-14
1366.53 3.6858e-14
1376.0 3.9404e-14
1385.54 4.0414e-14
1395.15 3.7371e-14
1404.82 3.8774e-14
1414.55 3.8154e-14
1424.36 3.9404e-14
1434.23 3.8953e-14
1440.85 4.1261e-14
1447.5 4.2028e-14
1454.19 4.1071e-14
1464.27 3.8507e-14
1474.42 3.8154e-14
1484.63 3.8863e-14
1494.93 3.9768e-14
1505.29 3.8154e-14
1512.24 3.4637e-14
1515.72 3.7029e-14
1526.23 3.5689e-14
1533.27 3.1881e-14
1543.9 3.5525e-14
1554.6 3.3461e-14
1565.38 3.3615e-14
1576.23 3.5525e-14
1583.51 3.7199e-14
1594.48 3.8242e-14
1605.53 3.7114e-14
1616.66 3.7544e-14
1624.13 3.5607e-14
1635.38 3.7544e-14
1646.72 3.8066e-14
1654.32 3.5119e-14
1665.79 3.8507e-14
1673.48 3.4877e-14
1677.34 3.8154e-14
1685.08 4.0044e-14
1696.76 3.7978e-14
1704.59 3.6437e-14
1716.41 3.4717e-14
1724.33 3.4557e-14
1736.28 3.6605e-14
1744.29 3.5854e-14
1756.39 3.8242e-14
1764.49 3.5038e-14
1776.72 3.6437e-14
1784.92 3.7029e-14
1793.16 3.9132e-14
1805.59 3.8863e-14
1813.93 3.6437e-14
1826.5 3.7029e-14
1834.93 3.5771e-14
1843.4 3.3307e-14
1856.18 3.3154e-14
1864.75 3.4083e-14
1873.35 3.6858e-14
1886.34 3.4319e-14
1895.05 3.3002e-14
1903.79 3.4957e-14
1916.99 3.377e-14
1925.84 3.3307e-14
1934.73 3.4319e-14
1943.66 3.5525e-14
1957.13 3.3538e-14
1966.16 3.6353e-14
1975.24 3.7285e-14
1984.36 3.5444e-14
1993.52 3.4398e-14
2002.72 3.5362e-14
2016.6 3.424e-14
2025.91 3.5937e-14
2035.26 3.424e-14
2044.65 3.5281e-14
2054.09 3.377e-14
2063.57 3.424e-14
2073.1 3.6019e-14
2077.88 3.4637e-14
2082.67 3.5689e-14
2097.1 3.3926e-14
2106.78 3.4398e-14
2116.51 3.4557e-14
2126.28 3.5119e-14
2136.09 3.2926e-14
2145.95 3.377e-14
2155.86 3.4797e-14
2165.81 3.377e-14
2175.8 3.3461e-14
2185.85 3.3002e-14
2195.94 3.4398e-14
2206.07 3.3461e-14
2216.25 3.2176e-14
2226.48 3.1084e-14
2236.76 3.3154e-14
2247.09 3.1735e-14
2257.46 3.0728e-14
2262.66 3.1299e-14
2273.11 3.2174e-14
2283.6 3.2769e-14
2294.14 3.1364e-14
2304.73 3.1074e-14
2315.37 2.9948e-14
2326.05 2.4397e-14
2336.79 2.8399e-14
2347.58 2.7623e-14
2352.99 2.9326e-14
2363.85 2.743e-14
2374.76 2.8131e-14
2385.72 2.6433e-14
2396.73 2.8062e-14
2402.26 2.6984e-14
2413.35 2.7483e-14
2424.49 2.8644e-14
2435.68 2.7479e-14
2446.92 2.8971e-14
2452.56 2.8376e-14
2463.88 2.8308e-14
2475.25 2.7408e-14
2486.68 2.8434e-14
2492.41 2.7153e-14
2503.91 2.9294e-14
2515.47 2.6962e-14
2527.08 2.6468e-14
2532.91 2.6711e-14
2544.6 2.6282e-14
2556.35 2.7645e-14
2562.24 2.7202e-14
2574.07 2.8482e-14
2585.95 2.8283e-14
2597.88 2.8151e-14
2603.87 2.7194e-14
2615.89 2.7005e-14
2627.97 2.7695e-14
2634.02 2.8144e-14
2646.18 2.9878e-14
2652.28 3.0014e-14
2664.52 2.8203e-14
2676.82 2.9124e-14
2682.99 2.8989e-14
2695.38 2.8067e-14
2707.82 2.852e-14
2714.06 2.7487e-14
2726.59 2.7422e-14
2732.87 2.845e-14
2745.49 2.5765e-14
2758.16 2.6001e-14
2764.52 2.6729e-14
2777.28 2.7665e-14
2783.68 2.691e-14
2796.53 2.3008e-14
2802.98 2.437e-14
2815.92 2.7531e-14
2822.41 2.8041e-14
2835.44 2.7087e-14
2841.97 2.653e-14
2855.09 2.6164e-14
2868.27 2.752e-14
2874.88 2.733e-14
2888.15 2.739e-14
2894.81 2.72e-14
2908.17 2.8545e-14
2928.33 2.7763e-14
2948.63 2.7378e-14
2969.07 2.7564e-14
2989.65 2.7497e-14
3010.37 2.7683e-14
3031.24 2.7552e-14
3052.25 2.7421e-14
3073.4 2.7291e-14
3087.59 2.7351e-14
3108.99 2.7096e-14
3130.54 2.6844e-14
3152.24 2.6839e-14
3166.79 2.6713e-14
3188.74 2.5802e-14
3210.85 2.6278e-14
3233.1 2.5558e-14
3248.03 2.6211e-14
3270.54 2.6571e-14
3293.21 2.6444e-14
3308.41 2.632e-14
3323.68 2.6136e-14
3331.35 2.6195e-14
3339.02 2.5072e-14
3346.72 2.6072e-14
3354.44 2.5243e-14
3362.17 2.4895e-14
3369.92 2.4666e-14
3377.69 2.4608e-14
3385.48 2.518e-14
3393.28 2.5943e-14
3401.1 2.6853e-14
3408.94 2.506e-14
3416.8 2.5465e-14
3424.68 2.6117e-14
3432.57 2.6724e-14
3440.48 2.5875e-14
3448.42 2.4823e-14
3456.37 2.4707e-14
3464.33 2.4033e-14
3472.32 2.528e-14
3480.32 2.4308e-14
3488.35 2.5103e-14
3496.39 2.4757e-14
3504.45 2.4756e-14
3512.53 2.4471e-14
3520.62 2.5097e-14
3528.74 2.4077e-14
3536.87 2.5152e-14
3545.03 2.5559e-14
3553.2 2.5676e-14
3561.39 2.5498e-14
3569.6 2.4237e-14
3577.83 2.3629e-14
3586.08 2.2984e-14
3594.34 2.3735e-14
3602.63 2.491e-14
3610.94 2.4063e-14
3616.77 2.5747e-14
3619.48 2.4089e-14
3622.18 2.5343e-14
3624.88 2.656e-14
3627.59 2.5287e-14
3630.29 2.2707e-14
3632.99 2.4181e-14
3635.7 2.2915e-14
3638.4 2.2523e-14
3641.11 2.5606e-14
3643.81 2.6152e-14
3646.51 2.448e-14
3649.22 2.4912e-14
3651.92 2.4829e-14
3654.62 2.4453e-14
3657.33 2.3825e-14
3660.03 2.3885e-14
3662.73 2.5175e-14
3665.44 2.3199e-14
3668.14 2.3603e-14
3670.85 2.6196e-14
3673.55 2.4475e-14
3676.25 2.3129e-14
3678.96 2.1943e-14
3681.66 2.2895e-14
3684.36 2.3752e-14
3687.07 2.4331e-14
3689.77 2.4429e-14
3692.47 2.2981e-14
3695.18 2.4021e-14
3697.88 2.312e-14
3700.59 2.3895e-14
3703.29 2.2925e-14
3705.99 2.3469e-14
3708.7 2.2841e-14
3711.4 2.5111e-14
3714.1 2.6158e-14
3716.81 2.7056e-14
3719.51 2.9914e-14
3722.21 4.0237e-14
3724.92 6.1797e-14
3727.62 8.0763e-14
3730.33 8.3351e-14
3733.03 6.5475e-14
3735.73 4.4464e-14
3738.44 3.2182e-14
3741.14 2.8793e-14
3743.84 2.728e-14
3746.55 2.6324e-14
3749.25 2.6423e-14
3751.96 2.5085e-14
3754.66 2.6169e-14
3757.36 2.806e-14
3760.07 2.8886e-14
3762.77 2.9208e-14
3765.47 2.9866e-14
3768.18 2.7251e-14
3770.88 2.4961e-14
3773.58 2.5458e-14
3776.29 2.9515e-14
3778.99 3.174e-14
3781.7 3.3322e-14
3784.4 3.3461e-14
3787.1 3.3507e-14
3789.81 3.2884e-14
3792.51 3.0885e-14
3795.21 2.9693e-14
3797.92 2.5494e-14
3800.62 2.7401e-14
3803.32 2.924e-14
3806.03 3.0926e-14
3808.73 3.3998e-14
3811.44 3.5459e-14
3814.14 3.4483e-14
3816.84 3.566e-14
3819.55 3.566e-14
3822.25 3.4732e-14
3824.95 3.2727e-14
3827.66 2.9983e-14
3830.36 2.9864e-14
3833.07 2.7979e-14
3835.77 2.6691e-14
3838.47 2.6927e-14
3841.18 2.7963e-14
3843.88 3.1608e-14
3846.58 3.2602e-14
3849.29 3.52e-14
3851.99 3.4429e-14
3854.69 3.5847e-14
3857.4 3.7834e-14
3860.1 3.854e-14
3862.81 3.9067e-14
3865.51 4.0835e-14
3868.21 4.2057e-14
3870.92 4.3581e-14
3873.62 4.1058e-14
3876.32 3.9171e-14
3879.03 3.567e-14
3881.73 3.3846e-14
3884.43 3.1901e-14
3887.14 2.9669e-14
3889.84 2.9002e-14
3892.55 2.89e-14
3895.25 2.9651e-14
3897.95 3.0153e-14
3900.66 3.2874e-14
3903.36 3.5866e-14
3906.06 3.5952e-14
3908.77 3.7186e-14
3911.47 3.9225e-14
3914.17 3.9642e-14
3916.88 3.7859e-14
3919.58 3.7887e-14
3922.29 3.5864e-14
3924.99 3.7e-14
3927.69 3.7011e-14
3930.4 3.5466e-14
3933.1 3.3695e-14
3935.8 3.3165e-14
3938.51 3.4675e-14
3941.21 3.7641e-14
3943.92 3.7536e-14
3946.62 3.8751e-14
3949.32 3.8748e-14
3952.03 3.8653e-14
3954.73 3.8098e-14
3957.43 3.8409e-14
3960.14 3.6068e-14
3962.84 3.4571e-14
3965.54 3.1055e-14
3968.25 3.0594e-14
3970.95 2.962e-14
3973.66 3.0409e-14
3976.36 3.1609e-14
3979.06 3.2291e-14
3981.77 3.5726e-14
3984.47 3.7605e-14
3987.17 3.8091e-14
3989.88 3.903e-14
3992.58 4.1006e-14
3995.28 4.188e-14
3997.99 4.2017e-14
4000.69 4.191e-14
4003.4 4.0524e-14
4006.1 4.165e-14
4008.8 4.1301e-14
4011.51 4.1039e-14
4014.21 4.0601e-14
4016.91 4.205e-14
4019.62 4.0744e-14
4022.32 3.936e-14
4025.03 4.2138e-14
4027.73 4.0983e-14
4030.43 4.0617e-14
4033.14 4.1007e-14
4035.84 4.0598e-14
4038.54 3.9496e-14
4041.25 4.1758e-14
4043.95 4.0749e-14
4046.65 4.0257e-14
4049.36 3.933e-14
4052.06 3.8412e-14
4054.77 3.8976e-14
4057.47 3.8152e-14
4060.17 3.9685e-14
4062.88 3.8198e-14
4065.58 3.8233e-14
4068.28 3.9101e-14
4070.99 3.832e-14
4073.69 3.8088e-14
4076.39 3.8244e-14
4079.1 3.8558e-14
4081.8 3.7765e-14
4084.51 3.8568e-14
4087.21 3.7451e-14
4089.91 3.579e-14
4092.62 3.6044e-14
4095.32 3.4207e-14
4098.02 3.2964e-14
4100.73 3.493e-14
4103.43 3.5282e-14
4106.13 3.3213e-14
4108.84 3.0574e-14
4111.54 3.3182e-14
4114.25 3.5066e-14
4116.95 3.5635e-14
4119.65 3.7149e-14
4122.36 3.8297e-14
4125.06 3.8977e-14
4127.76 3.9836e-14
4130.47 3.984e-14
4133.17 3.8801e-14
4135.88 4.0219e-14
4138.58 3.9885e-14
4141.28 4.0931e-14
4143.99 4.0967e-14
4146.69 4.1077e-14
4149.39 3.9828e-14
4152.1 4.1087e-14
4154.8 4.1556e-14
4157.5 4.1145e-14
4160.21 4.0811e-14
4162.91 4.1455e-14
4165.62 4.1369e-14
4168.32 4.0749e-14
4171.02 4.113e-14
4173.73 3.9375e-14
4176.43 3.931e-14
4179.13 3.8457e-14
4181.84 3.9609e-14
4184.54 4.0426e-14
4187.24 3.9065e-14
4189.95 3.9434e-14
4192.65 4.0108e-14
4195.36 3.9762e-14
4198.06 3.9137e-14
4200.76 3.9115e-14
4203.47 3.9706e-14
4206.17 3.913e-14
4208.87 3.8835e-14
4211.58 3.9287e-14
4214.28 4.0262e-14
4216.98 3.9714e-14
4219.69 3.9255e-14
4222.39 3.9246e-14
4225.1 3.9417e-14
4227.8 3.9163e-14
4230.5 3.8996e-14
4233.21 3.8572e-14
4235.91 3.8785e-14
4238.61 3.8823e-14
4241.32 3.9416e-14
4244.02 3.9321e-14
4246.73 3.8594e-14
4249.43 3.8808e-14
4252.13 3.8201e-14
4254.84 3.7887e-14
4257.54 3.8072e-14
4260.24 3.9084e-14
4262.95 3.7997e-14
4265.65 3.7448e-14
4268.35 3.737e-14
4271.06 3.8049e-14
4273.76 3.8757e-14
4276.47 3.7938e-14
4279.17 3.8653e-14
4281.87 3.7932e-14
4284.58 3.7975e-14
4287.28 3.7921e-14
4289.98 3.7647e-14
4292.69 3.7104e-14
4295.39 3.6507e-14
4298.09 3.5821e-14
4300.8 3.6371e-14
4303.5 3.5339e-14
4306.21 3.5007e-14
4308.91 3.5603e-14
4311.61 3.5835e-14
4314.32 3.5795e-14
4317.02 3.7299e-14
4319.72 3.7331e-14
4322.43 3.7213e-14
4325.13 3.6919e-14
4327.84 3.6206e-14
4330.54 3.5597e-14
4333.24 3.4066e-14
4335.95 3.5584e-14
4338.65 3.8505e-14
4341.35 4.1257e-14
4344.06 4.1042e-14
4346.76 3.6904e-14
4349.46 3.4296e-14
4352.17 3.4874e-14
4354.87 3.5497e-14
4357.58 3.7142e-14
4360.28 3.8093e-14
4362.98 3.9061e-14
4365.69 4.0221e-14
4368.39 3.8358e-14
4371.09 3.9061e-14
4373.8 3.8887e-14
4376.5 3.7988e-14
4379.2 3.8429e-14
4381.91 3.7836e-14
4384.61 3.7376e-14
4387.32 3.7123e-14
4390.02 3.7512e-14
4392.72 3.7646e-14
4395.43 3.8313e-14
4398.13 3.9148e-14
4400.83 3.8805e-14
4403.54 3.8281e-14
4406.24 3.7608e-14
4408.94 3.7881e-14
4411.65 3.7212e-14
4414.35 3.8016e-14
4417.06 3.9063e-14
4419.76 3.8921e-14
4422.46 3.9325e-14
4425.17 3.8512e-14
4427.87 3.7348e-14
4430.57 3.7716e-14
4433.28 3.794e-14
4435.98 3.7747e-14
4438.69 3.826e-14
4441.39 3.8805e-14
4444.09 3.8481e-14
4446.8 3.8702e-14
4449.5 3.8183e-14
4452.2 3.7726e-14
4454.91 3.8179e-14
4457.61 3.7733e-14
4460.31 3.8617e-14
4463.02 3.8219e-14
4465.72 3.7255e-14
4468.43 3.7581e-14
4471.13 3.8619e-14
4473.83 3.9063e-14
4476.54 3.9552e-14
4479.24 3.9067e-14
4481.94 3.8918e-14
4484.65 3.8348e-14
4487.35 3.8117e-14
4490.05 3.8188e-14
4492.76 3.9344e-14
4495.46 3.9576e-14
4498.17 3.9065e-14
4500.87 3.8506e-14
4503.57 3.9557e-14
4506.28 3.9261e-14
4508.98 3.9403e-14
4511.68 4.0393e-14
4514.39 3.9795e-14
4517.09 3.971e-14
4519.79 3.9477e-14
4522.5 3.9097e-14
4525.2 3.8143e-14
4527.91 3.911e-14
4530.61 3.7482e-14
4533.31 3.7747e-14
4536.02 3.918e-14
4538.72 3.8974e-14
4541.42 3.8533e-14
4544.13 3.8751e-14
4546.83 3.8466e-14
4549.54 3.911e-14
4552.24 3.7132e-14
4554.94 3.7901e-14
4557.65 3.8326e-14
4560.35 3.8544e-14
4563.05 3.8696e-14
4565.76 3.9551e-14
4568.46 3.8402e-14
4571.16 3.9486e-14
4573.87 3.8893e-14
4576.57 3.8864e-14
4579.28 3.7481e-14
4581.98 3.763e-14
4584.68 3.8189e-14
4587.39 3.7731e-14
4590.09 3.7583e-14
4592.79 3.7533e-14
4595.5 3.8587e-14
4598.2 3.8116e-14
4600.9 3.7296e-14
4603.61 3.7467e-14
4606.31 3.7885e-14
4609.02 3.8459e-14
4611.72 3.834e-14
4614.42 3.9632e-14
4617.13 3.8634e-14
4619.83 3.9019e-14
4622.53 3.8903e-14
4625.24 3.9064e-14
4627.94 3.8474e-14
4630.65 3.8836e-14
4633.35 3.8857e-14
4636.05 3.9035e-14
4638.76 3.8815e-14
4641.46 3.8549e-14
4644.16 3.8576e-14
4646.87 3.8895e-14
4649.57 3.9e-14
4652.27 3.8623e-14
4654.98 3.8765e-14
4657.68 4.0233e-14
4660.39 3.9701e-14
4663.09 3.9768e-14
4665.79 3.9263e-14
4668.5 3.9449e-14
4671.2 3.9359e-14
4673.9 3.9394e-14
4676.61 3.8917e-14
4679.31 3.9635e-14
4682.01 3.9076e-14
4684.72 4.0066e-14
4687.42 3.9874e-14
4690.13 3.9548e-14
4692.83 3.9196e-14
4695.53 3.9024e-14
4698.24 3.8941e-14
4700.94 3.8862e-14
4703.64 3.9013e-14
4706.35 3.7905e-14
4709.05 3.762e-14
4711.75 3.775e-14
4714.46 3.782e-14
4717.16 3.8348e-14
4719.87 3.7518e-14
4722.57 3.8571e-14
4725.27 3.7918e-14
4727.98 3.769e-14
4730.68 3.8175e-14
4733.38 3.7569e-14
4736.09 3.6537e-14
4738.79 3.7473e-14
4741.5 3.6786e-14
4744.2 3.7036e-14
4746.9 3.6306e-14
4749.61 3.6515e-14
4752.31 3.7442e-14
4755.01 3.6269e-14
4757.72 3.6146e-14
4760.42 3.724e-14
4763.12 3.7344e-14
4765.83 3.5815e-14
4768.53 3.5222e-14
4771.24 3.5182e-14
4773.94 3.6058e-14
4776.64 3.6302e-14
4779.35 3.6932e-14
4782.05 3.6965e-14
4784.75 3.6088e-14
4787.46 3.6249e-14
4790.16 3.5125e-14
4792.86 3.6173e-14
4795.57 3.6881e-14
4798.27 3.5966e-14
4800.98 3.5931e-14
4803.68 3.6032e-14
4806.38 3.5791e-14
4809.09 3.5241e-14
4811.79 3.5769e-14
4814.49 3.6197e-14
4817.2 3.6339e-14
4819.9 3.591e-14
4822.61 3.642e-14
4825.31 3.5429e-14
4828.01 3.4872e-14
4830.72 3.4681e-14
4833.42 3.4848e-14
4836.12 3.571e-14
4838.83 3.5726e-14
4841.53 3.556e-14
4844.23 3.4254e-14
4846.94 3.4231e-14
4849.64 3.3883e-14
4852.35 3.4264e-14
4855.05 3.5978e-14
4857.75 4.36e-14
4860.46 5.667e-14
4863.16 6.4714e-14
4865.86 5.9164e-14
4868.57 4.6044e-14
4871.27 3.6849e-14
4873.97 3.3132e-14
4876.68 3.325e-14
4879.38 3.377e-14
4882.09 3.3842e-14
4884.79 3.4561e-14
4887.49 3.4543e-14
4890.2 3.4466e-14
4892.9 3.4503e-14
4895.6 3.5611e-14
4898.31 3.6587e-14
4901.01 3.5703e-14
4903.71 3.5341e-14
4906.42 3.5374e-14
4909.12 3.5484e-14
4911.83 3.524e-14
4914.53 3.4897e-14
4917.23 3.5469e-14
4919.94 3.4919e-14
4922.64 3.4354e-14
4925.34 3.4452e-14
4928.05 3.5151e-14
4930.75 3.5788e-14
4933.46 3.5886e-14
4936.16 3.4965e-14
4938.86 3.5106e-14
4941.57 3.4443e-14
4944.27 3.4958e-14
4946.97 3.5775e-14
4949.68 3.6252e-14
4952.38 3.7129e-14
4955.08 4.1342e-14
4957.79 4.7063e-14
4960.49 4.9925e-14
4963.2 4.74e-14
4965.9 4.3853e-14
4968.6 3.8513e-14
4971.31 3.5636e-14
4974.01 3.5122e-14
4976.71 3.4595e-14
4979.42 3.517e-14
4982.12 3.4423e-14
4984.82 3.4578e-14
4987.53 3.4947e-14
4990.23 3.5178e-14
4992.94 3.6494e-14
4995.64 3.7688e-14
4998.34 3.8938e-14
5001.05 4.4249e-14
5003.75 5.7734e-14
5006.45 7.5395e-14
5009.16 8.4128e-14
5011.86 7.5603e-14
5014.57 5.5651e-14
5017.27 4.1247e-14
5019.97 3.5632e-14
5022.68 3.5266e-14
5025.38 3.4984e-14
5028.08 3.5478e-14
5030.79 3.5192e-14
5033.49 3.5573e-14
5036.19 3.4049e-14
5038.9 3.4004e-14
5041.6 3.3786e-14
5044.31 3.4519e-14
5047.01 3.4798e-14
5049.71 3.4833e-14
5052.42 3.3865e-14
5055.12 3.3579e-14
5057.82 3.4753e-14
5060.53 3.5086e-14
5063.23 3.483e-14
5065.93 3.5075e-14
5068.64 3.4303e-14
5071.34 3.3775e-14
5074.05 3.4693e-14
5076.75 3.4176e-14
5079.45 3.4143e-14
5082.16 3.3338e-14
5084.86 3.3646e-14
5087.56 3.4348e-14
5090.27 3.4797e-14
5092.97 3.4599e-14
5095.67 3.5222e-14
5098.38 3.4678e-14
5101.08 3.3862e-14
5103.79 3.3855e-14
5106.49 3.4446e-14
5109.19 3.3872e-14
5111.9 3.3316e-14
5114.6 3.3485e-14
5117.3 3.394e-14
5120.01 3.4203e-14
5122.71 3.4756e-14
5125.42 3.3943e-14
5128.12 3.2653e-14
5130.82 3.31e-14
5133.53 3.3548e-14
5136.23 3.2719e-14
5138.93 3.2875e-14
5141.64 3.251e-14
5144.34 3.3125e-14
5147.04 3.3541e-14
5149.75 3.2837e-14
5152.45 3.2451e-14
5155.16 3.2925e-14
5157.86 3.3317e-14
5160.56 3.3303e-14
5163.27 3.3809e-14
5165.97 3.2875e-14
5168.67 3.1859e-14
5171.38 3.183e-14
5174.08 3.1139e-14
5176.78 3.1746e-14
5179.49 3.2221e-14
5182.19 3.167e-14
5184.9 3.1691e-14
5187.6 3.1467e-14
5190.3 3.1589e-14
5193.01 3.3149e-14
5195.71 3.4355e-14
5198.41 3.4443e-14
5201.12 3.4211e-14
5203.82 3.4041e-14
5206.53 3.3222e-14
5209.23 3.3027e-14
5211.93 3.2675e-14
5214.64 3.2358e-14
5217.34 3.2668e-14
5220.04 3.3454e-14
5222.75 3.3192e-14
5225.45 3.3354e-14
5228.15 3.2188e-14
5230.86 3.2259e-14
5233.56 3.2303e-14
5236.27 3.2799e-14
5238.97 3.315e-14
5241.67 3.3374e-14
5244.38 3.3452e-14
5247.08 3.3999e-14
5249.78 3.3551e-14
5252.49 3.3315e-14
5255.19 3.3264e-14
5257.89 3.3557e-14
5260.6 3.3102e-14
5263.3 3.2662e-14
5266.01 3.1672e-14
5268.71 3.1145e-14
5271.41 3.1421e-14
5274.12 3.2348e-14
5276.82 3.2742e-14
5279.52 3.3213e-14
5282.23 3.3687e-14
5284.93 3.3932e-14
5287.63 3.3776e-14
5290.34 3.4308e-14
5293.04 3.3926e-14
5295.75 3.3593e-14
5298.45 3.2981e-14
5301.15 3.327e-14
5303.86 3.2977e-14
5306.56 3.3065e-14
5309.26 3.3444e-14
5311.97 3.3954e-14
5314.67 3.3653e-14
5317.38 3.3918e-14
5320.08 3.379e-14
5322.78 3.3181e-14
5325.49 3.343e-14
5328.19 3.1652e-14
5330.89 3.1542e-14
5333.6 3.2305e-14
5336.3 3.2917e-14
5339.0 3.3314e-14
5341.71 3.2979e-14
5344.41 3.3494e-14
5347.12 3.3262e-14
5349.82 3.299e-14
5352.52 3.3504e-14
5355.23 3.3773e-14
5357.93 3.2884e-14
5360.63 3.3712e-14
5363.34 3.3291e-14
5366.04 3.2555e-14
5368.74 3.2997e-14
5371.45 3.3956e-14
5374.15 3.2579e-14
5376.86 3.3233e-14
5379.56 3.34e-14
5382.26 3.4398e-14
5384.97 3.3347e-14
5387.67 3.3285e-14
5390.37 3.2545e-14
5393.08 3.2771e-14
5395.78 3.2625e-14
5398.49 3.1737e-14
5401.19 3.2095e-14
5403.89 3.1832e-14
5406.6 3.2369e-14
5409.3 3.2251e-14
5412.0 3.2147e-14
5414.71 3.3116e-14
5417.41 3.2934e-14
5420.11 3.2952e-14
5422.82 3.305e-14
5425.52 3.2959e-14
5428.23 3.2427e-14
5430.93 3.2342e-14
5433.63 3.2328e-14
5436.34 3.1199e-14
5439.04 3.1965e-14
5441.74 3.2174e-14
5444.45 3.2209e-14
5447.15 3.2277e-14
5449.85 3.1559e-14
5452.56 3.1896e-14
5455.26 3.2176e-14
5457.97 3.1333e-14
5460.67 3.2951e-14
5463.37 3.3442e-14
5466.08 3.2007e-14
5468.78 3.2559e-14
5471.48 3.2122e-14
5474.19 3.1532e-14
5476.89 3.1501e-14
5479.59 3.1489e-14
5482.3 3.1879e-14
5485.0 3.1687e-14
5487.71 3.2253e-14
5490.41 3.2635e-14
5493.11 3.2319e-14
5495.82 3.1852e-14
5498.52 3.2245e-14
5501.22 3.117e-14
5503.93 3.2222e-14
5506.63 3.2257e-14
5509.34 3.1626e-14
5512.04 3.2257e-14
5514.74 3.1767e-14
5517.45 3.1848e-14
5520.15 3.1656e-14
5522.85 3.1893e-14
5525.56 3.2791e-14
5528.26 3.2567e-14
5530.96 3.2702e-14
5533.67 3.1779e-14
5536.37 3.1851e-14
5539.08 3.2263e-14
5541.78 3.2364e-14
5544.48 3.2496e-14
5547.19 3.2279e-14
5549.89 3.3043e-14
5552.59 3.238e-14
5555.3 3.2707e-14
5558.0 3.2999e-14
5560.7 3.2735e-14
5563.41 3.2553e-14
5566.11 3.3157e-14
5568.82 3.1922e-14
5571.52 3.1698e-14
5574.22 3.2402e-14
5576.93 3.2287e-14
5579.63 3.1683e-14
5582.33 3.1788e-14
5585.04 3.2389e-14
5587.74 3.1388e-14
5590.45 3.1008e-14
5593.15 3.1113e-14
5595.85 3.0132e-14
5598.56 3.188e-14
5601.26 3.0748e-14
5603.96 2.9797e-14
5606.67 3.2292e-14
5609.37 3.0957e-14
5612.07 3.2914e-14
5614.78 3.1031e-14
5617.48 3.052e-14
5620.19 3.0877e-14
5622.89 3.1698e-14
5625.59 3.148e-14
5628.3 3.1891e-14
5631.0 3.1358e-14
5633.7 3.2274e-14
5636.41 3.2344e-14
5639.11 3.2021e-14
5641.81 3.1103e-14
5644.52 3.121e-14
5647.22 3.0884e-14
5649.93 3.0904e-14
5652.63 3.1361e-14
5655.33 3.1386e-14
5658.04 3.1542e-14
5660.74 3.0751e-14
5663.44 3.1054e-14
5666.15 3.101e-14
5668.85 3.1213e-14
5671.55 3.1299e-14
5674.26 3.1068e-14
5676.96 3.1116e-14
5679.67 3.1219e-14
5682.37 3.0836e-14
5685.07 3.0705e-14
5687.78 3.1427e-14
5690.48 3.0783e-14
5693.18 3.1459e-14
5695.89 3.1011e-14
5698.59 3.0909e-14
5701.3 3.1501e-14
5704.0 3.1593e-14
5706.7 3.0323e-14
5709.41 2.9876e-14
5712.11 3.0472e-14
5714.81 3.0986e-14
5717.52 3.0414e-14
5720.22 3.1512e-14
5722.92 3.1652e-14
5725.63 3.1606e-14
5728.33 3.1677e-14
5731.04 3.1458e-14
5733.74 3.0992e-14
5736.44 3.1366e-14
5739.15 3.1787e-14
5741.85 3.089e-14
5744.55 3.0873e-14
5747.26 3.1512e-14
5749.96 3.2085e-14
5752.66 3.2446e-14
5755.37 3.2004e-14
5758.07 3.1394e-14
5760.78 3.0561e-14
5763.48 3.1568e-14
5766.18 3.1806e-14
5768.89 3.1649e-14
5771.59 3.2093e-14
5774.29 3.1659e-14
5777.0 3.079e-14
5779.7 3.1352e-14
5782.41 3.0691e-14
5785.11 3.11e-14
5787.81 3.0749e-14
5790.52 3.0412e-14
5793.22 3.0357e-14
5795.92 3.1398e-14
5798.63 3.1409e-14
5801.33 3.0953e-14
5804.03 3.1118e-14
5806.74 3.1416e-14
5809.44 3.0697e-14
5812.15 3.1507e-14
5814.85 3.0733e-14
5817.55 3.2003e-14
5820.26 3.0627e-14
5822.96 3.1061e-14
5825.66 3.0752e-14
5828.37 3.0184e-14
5831.07 3.1012e-14
5833.77 3.0909e-14
5836.48 3.0715e-14
5839.18 3.0507e-14
5841.89 3.1121e-14
5844.59 3.0578e-14
5847.29 3.0018e-14
5850.0 3.1616e-14
5852.7 3.1695e-14
5855.4 3.0957e-14
5858.11 3.0359e-14
5860.81 2.9938e-14
5863.51 3.1252e-14
5866.22 3.1649e-14
5868.92 3.1426e-14
5871.63 3.3304e-14
5874.33 3.5595e-14
5877.03 3.5887e-14
5879.74 3.4413e-14
5882.44 3.3001e-14
5885.14 3.1212e-14
5887.85 3.0417e-14
5890.55 2.9333e-14
5893.26 2.8619e-14
5895.96 2.8799e-14
5898.66 2.8917e-14
5901.37 2.9157e-14
5904.07 2.9412e-14
5906.77 2.971e-14
5909.48 2.9628e-14
5912.18 2.997e-14
5914.88 2.9979e-14
5917.59 3.0178e-14
5920.29 3.0239e-14
5923.0 2.9446e-14
5925.7 3.0002e-14
5928.4 2.9683e-14
5931.11 2.9529e-14
5933.81 3.0387e-14
5936.51 3.0422e-14
5939.22 3.0858e-14
5941.92 3.3599e-14
5944.62 3.3609e-14
5947.33 3.0257e-14
5950.03 3.0421e-14
5952.74 2.9455e-14
5955.44 2.9797e-14
5958.14 3.0359e-14
5960.85 2.9685e-14
5963.55 2.9956e-14
5966.25 2.9184e-14
5968.96 2.9196e-14
5971.66 3.0507e-14
5974.37 3.0234e-14
5977.07 2.9992e-14
5979.77 2.9995e-14
5982.48 2.9413e-14
5985.18 2.9251e-14
5987.88 3.0636e-14
5990.59 3.0433e-14
5993.29 3.0523e-14
5995.99 2.9503e-14
5998.7 2.9475e-14
6001.4 2.9585e-14
6004.11 2.9238e-14
6006.81 2.9054e-14
6009.51 2.9166e-14
6012.22 2.8729e-14
6014.92 2.9417e-14
6017.62 2.8539e-14
6020.33 2.8478e-14
6023.03 2.7945e-14
6025.73 2.9468e-14
6028.44 2.9732e-14
6031.14 2.9802e-14
6033.85 2.955e-14
6036.55 3.0028e-14
6039.25 2.9572e-14
6041.96 3.0701e-14
6044.66 2.9526e-14
6047.36 3.038e-14
6050.07 2.9837e-14
6052.77 2.9519e-14
6055.47 2.9508e-14
6058.18 2.9952e-14
6060.88 2.9135e-14
6063.59 2.908e-14
6066.29 2.9906e-14
6068.99 2.951e-14
6071.7 2.9536e-14
6074.4 2.8938e-14
6077.1 2.9965e-14
6079.81 2.8958e-14
6082.51 2.9236e-14
6085.22 2.9876e-14
6087.92 2.9005e-14
6090.62 2.941e-14
6093.33 2.9995e-14
6096.03 2.9372e-14
6098.73 2.9583e-14
6101.44 2.9103e-14
6104.14 2.8429e-14
6106.84 2.8871e-14
6109.55 2.8748e-14
6112.25 2.9437e-14
6114.96 2.9614e-14
6117.66 2.9256e-14
6120.36 2.8617e-14
6123.07 2.8889e-14
6125.77 2.8709e-14
6128.47 2.9454e-14
6131.18 2.9288e-14
6133.88 2.8441e-14
6136.58 2.8586e-14
6139.29 2.8331e-14
6141.99 2.8909e-14
6144.7 2.8314e-14
6147.4 2.8305e-14
6150.1 2.8938e-14
6152.81 2.8795e-14
6155.51 2.8408e-14
6158.21 2.767e-14
6160.92 2.6967e-14
6163.62 2.747e-14
6166.33 2.8161e-14
6169.03 2.7072e-14
6171.73 2.8173e-14
6174.44 2.8157e-14
6177.14 2.9073e-14
6179.84 2.9969e-14
6182.55 2.9729e-14
6185.25 2.8695e-14
6187.95 2.8858e-14
6190.66 2.968e-14
6193.36 2.8414e-14
6196.07 2.9504e-14
6198.77 2.9162e-14
6201.47 2.9137e-14
6204.18 2.9715e-14
6206.88 2.8744e-14
6209.58 2.9161e-14
6212.29 2.941e-14
6214.99 2.8343e-14
6217.69 2.9017e-14
6220.4 2.9215e-14
6223.1 2.6425e-14
6225.81 2.6701e-14
6228.51 2.8644e-14
6231.21 2.8531e-14
6233.92 2.8053e-14
6236.62 2.8605e-14
6239.32 2.7247e-14
6242.03 2.7842e-14
6244.73 2.7553e-14
6247.43 2.7188e-14
6250.14 2.8424e-14
6252.84 2.8055e-14
6255.55 2.7549e-14
6258.25 2.7611e-14
6260.95 2.855e-14
6263.66 2.8117e-14
6266.36 2.859e-14
6269.06 2.8461e-14
6271.77 2.8471e-14
6274.47 2.8046e-14
6277.18 2.8654e-14
6279.88 2.8043e-14
6282.58 2.7525e-14
6285.29 2.7547e-14
6287.99 2.783e-14
6290.69 2.8168e-14
6293.4 2.8168e-14
6296.1 2.9978e-14
6298.8 3.2658e-14
6301.51 3.3971e-14
6304.21 3.4818e-14
6306.92 3.133e-14
6309.62 2.945e-14
6312.32 2.8545e-14
6315.03 2.8011e-14
6317.73 2.7215e-14
6320.43 2.7992e-14
6323.14 2.8024e-14
6325.84 2.8938e-14
6328.54 2.8911e-14
6331.25 2.8586e-14
6333.95 2.7223e-14
6336.66 2.933e-14
6339.36 2.8214e-14
6342.06 2.8511e-14
6344.77 2.8079e-14
6347.47 2.9307e-14
6350.17 2.8534e-14
6352.88 2.8196e-14
6355.58 2.8742e-14
6358.29 2.9307e-14
6360.99 2.873e-14
6363.69 2.9261e-14
6366.4 2.9617e-14
6369.1 3.027e-14
6371.8 2.9134e-14
6374.51 2.7842e-14
6377.21 2.8548e-14
6379.91 2.8393e-14
6382.62 2.8354e-14
6385.32 2.9112e-14
6388.03 2.9475e-14
6390.73 2.8303e-14
6393.43 2.7365e-14
6396.14 2.7444e-14
6398.84 2.7221e-14
6401.54 2.7162e-14
6404.25 2.7373e-14
6406.95 2.7476e-14
6409.65 2.8287e-14
6412.36 2.854e-14
6415.06 2.8101e-14
6417.77 2.8166e-14
6420.47 2.8282e-14
6423.17 2.8066e-14
6425.88 2.7721e-14
6428.58 2.7261e-14
6431.28 2.8054e-14
6433.99 2.7934e-14
6436.69 2.7604e-14
6439.39 2.6802e-14
6442.1 2.6769e-14
6444.8 2.6181e-14
6447.51 2.6192e-14
6450.21 2.5838e-14
6452.91 2.5962e-14
6455.62 2.6337e-14
6458.32 2.6329e-14
6461.02 2.7449e-14
6463.73 2.7017e-14
6466.43 2.7821e-14
6469.14 2.7611e-14
6471.84 2.7874e-14
6474.54 2.7077e-14
6477.25 2.7945e-14
6479.95 2.7396e-14
6482.65 2.7098e-14
6485.36 2.6159e-14
6488.06 2.6727e-14
6490.76 2.6259e-14
6493.47 2.6478e-14
6496.17 2.5553e-14
6498.88 2.6277e-14
6501.58 2.7589e-14
6504.28 2.7305e-14
6506.99 2.8451e-14
6509.69 2.8154e-14
6512.39 2.7971e-14
6515.1 2.7517e-14
6517.8 2.7539e-14
6520.5 2.8104e-14
6523.21 2.8957e-14
6525.91 2.994e-14
6528.62 2.9601e-14
6531.32 2.9904e-14
6534.02 2.8285e-14
6536.73 2.9906e-14
6539.43 3.0085e-14
6542.13 3.2794e-14
6544.84 3.9407e-14
6547.54 4.7887e-14
6550.25 5.2647e-14
6552.95 5.1091e-14
6555.65 5.1813e-14
6558.36 7.7089e-14
6561.06 1.3016e-13
6563.76 1.794e-13
6566.47 1.7423e-13
6569.17 1.2064e-13
6571.87 6.9215e-14
6574.58 4.6064e-14
6577.28 4.3496e-14
6579.99 5.6717e-14
6582.69 7.7924e-14
6585.39 8.9114e-14
6588.1 7.8344e-14
6590.8 5.6213e-14
6593.5 3.7775e-14
6596.21 3.0408e-14
6598.91 2.9106e-14
6601.61 2.8832e-14
6604.32 2.8439e-14
6607.02 2.8286e-14
6609.73 2.8367e-14
6612.43 2.6906e-14
6615.13 2.7541e-14
6617.84 2.7423e-14
6620.54 2.802e-14
6623.24 2.7956e-14
6625.95 2.698e-14
6628.65 2.738e-14
6631.35 2.7361e-14
6634.06 2.7572e-14
6636.76 2.6965e-14
6639.47 2.755e-14
6642.17 2.7736e-14
6644.87 2.8519e-14
6647.58 2.8455e-14
6650.28 2.6759e-14
6652.98 2.7394e-14
6655.69 2.7756e-14
6658.39 2.6724e-14
6661.1 2.7654e-14
6663.8 2.7883e-14
6666.5 2.7557e-14
6669.21 2.6666e-14
6671.91 2.8316e-14
6674.61 2.846e-14
6677.32 2.81e-14
6680.02 2.818e-14
6682.72 2.9419e-14
6685.43 2.8281e-14
6688.13 2.7011e-14
6690.84 2.7316e-14
6693.54 2.7812e-14
6696.24 2.6788e-14
6698.95 2.8156e-14
6701.65 2.7519e-14
6704.35 2.8144e-14
6707.06 2.8066e-14
6709.76 3.0828e-14
6712.46 3.8324e-14
6723.88 2.6308e-14
6739.38 2.7104e-14
6754.91 2.6483e-14
6770.48 2.7035e-14
6786.09 2.7219e-14
6801.73 2.6534e-14
6817.42 2.6715e-14
6833.13 2.6773e-14
6848.88 2.598e-14
6864.67 2.5917e-14
6880.5 2.6094e-14
6896.36 2.615e-14
6912.25 2.6087e-14
6928.19 2.5904e-14
6944.16 2.6321e-14
6960.17 2.5838e-14
6976.21 2.6558e-14
6992.29 2.6433e-14
7008.41 2.5828e-14
7024.57 2.5411e-14
7040.76 2.612e-14
7056.99 2.6663e-14
7073.26 2.4823e-14
7089.57 2.5515e-14
7105.91 2.5278e-14
7122.29 2.5043e-14
7138.71 2.4301e-14
7155.17 2.4354e-14
7171.66 2.4016e-14
7188.19 2.3684e-14
7204.76 2.401e-14
7221.37 2.4736e-14
7238.02 2.4962e-14
7254.7 2.5189e-14
7271.43 2.4387e-14
7288.19 2.444e-14
7304.99 2.5179e-14
7321.83 2.5002e-14
7338.71 2.4941e-14
7355.63 2.5227e-14
7372.58 2.4934e-14
7389.58 2.4988e-14
7406.62 2.487e-14
7423.69 2.4413e-14
7440.8 2.5209e-14
7457.96 2.5206e-14
7475.15 2.5144e-14
7492.38 2.5025e-14
7509.65 2.5195e-14
7526.96 2.5425e-14
7544.31 2.5304e-14
7561.7 2.4953e-14
7579.14 2.4494e-14
7596.61 2.4266e-14
7614.12 2.4096e-14
7631.67 2.4037e-14
7649.27 2.4145e-14
7666.9 2.3429e-14
7684.57 2.3697e-14
7702.29 2.3369e-14
7720.04 2.3151e-14
7737.84 2.3416e-14
7755.68 2.2359e-14
7773.56 2.3301e-14
7791.47 2.3244e-14
7809.44 2.3187e-14
7827.44 2.3615e-14
7845.48 2.3234e-14
7863.57 2.3392e-14
7881.7 2.312e-14
7899.86 2.3224e-14
7918.07 2.2587e-14
7936.33 2.2429e-14
7954.62 2.1814e-14
7972.96 2.2422e-14
7991.34 2.2835e-14
8009.76 2.2364e-14
8028.23 2.2934e-14
8046.74 2.3303e-14
8065.28 2.3192e-14
8083.88 2.235e-14
8102.51 2.1788e-14
8121.19 2.2602e-14
8139.91 2.2288e-14
8158.67 2.2081e-14
8177.49 2.1575e-14
8196.33 2.1374e-14
8215.23 2.2429e-14
8234.17 2.1515e-14
8253.15 2.2319e-14
8272.17 2.2678e-14
8291.25 2.1804e-14
8310.36 2.1952e-14
8329.51 2.1252e-14
8348.71 2.1694e-14
8367.96 2.1992e-14
8387.25 2.1389e-14
8406.59 2.1485e-14
8425.97 2.178e-14
8445.39 2.0323e-14
8464.86 2.1327e-14
8484.37 2.172e-14
8503.93 1.9989e-14
8523.53 2.0451e-14
8543.18 2.0828e-14
8562.88 2.1017e-14
8582.62 2.1404e-14
8602.4 2.0485e-14
8622.23 2.0623e-14
8642.11 2.1198e-14
8662.03 2.024e-14
8682.0 1.9371e-14
8702.01 2.0468e-14
8722.07 2.0845e-14
8742.18 2.0794e-14
8762.33 1.9492e-14
8782.53 2.0267e-14
8802.77 2.064e-14
8823.07 2.1118e-14
8843.41 2.0776e-14
8863.79 2.0114e-14
8884.23 1.9428e-14
8904.71 2.0293e-14
8925.23 2.0384e-14
8945.81 2.0616e-14
8966.43 2.0283e-14
8987.1 1.9818e-14
9007.82 1.9054e-14
9028.59 1.8617e-14
9049.4 2.0981e-14
9070.26 1.985e-14
9091.17 1.9306e-14
9112.13 2.0352e-14
9133.13 2.0727e-14
9154.19 1.9654e-14
9175.29 1.9696e-14
9196.44 1.9738e-14
9217.64 1.8977e-14
9238.89 1.7344e-14
9260.19 1.9412e-14
9281.53 1.9999e-14
9302.93 1.8964e-14
9324.37 1.9627e-14
9345.87 1.9578e-14
9367.42 1.9351e-14
9389.01 1.9481e-14
9410.65 1.9078e-14
9432.35 1.9429e-14
9454.09 1.9204e-14
9475.88 1.9422e-14
9497.73 1.9374e-14
9519.62 1.9017e-14
9541.57 1.7704e-14
9563.56 1.8663e-14
9585.61 1.9051e-14
9607.71 1.8916e-14
9629.85 1.8913e-14
9652.05 1.8779e-14
9674.3 1.8689e-14
9696.6 1.8815e-14
9718.96 1.8639e-14
9741.36 1.8423e-14
9763.82 1.8419e-14
9786.32 1.8247e-14
9808.89 1.8455e-14
9831.5 1.8324e-14
9854.16 1.8321e-14
9876.87 1.8191e-14
9899.64 1.8146e-14
9922.47 1.8101e-14
9945.34 1.8056e-14
9968.27 1.8011e-14
9991.25 1.7925e-14
10014.28 1.7554e-14
10083.7 1.7184e-14
10130.24 1.7618e-14
10177.0 1.7409e-14
10223.98 1.7402e-14
10271.17 1.7355e-14
10294.84 1.7233e-14
10510.41 1.6618e-14
10705.82 1.5905e-14
10904.85 1.5085e-14
11107.59 1.4741e-14
11288.07 1.4274e-14
11497.93 1.4078e-14
11711.7 1.3631e-14
11902.0 1.3169e-14
12095.39 1.2839e-14
12291.92 1.2576e-14
12491.65 1.2205e-14
12694.62 1.1872e-14
12900.89 1.1575e-14
13110.51 1.1338e-14
13292.9 1.1004e-14
13508.89 1.0778e-14
13696.82 1.0533e-14
13887.36 1.0222e-14
14113.01 9.875e-15
14309.35 9.6725e-15
14508.41 9.628e-15
14710.24 9.3656e-15
14914.89 9.3656e-15
15087.58 9.3012e-15
15297.47 9.3441e-15
15510.28 9.2584e-15
15689.89 9.0477e-15
15908.15 8.7204e-15
16092.37 8.7607e-15
16316.22 8.7004e-15
16505.16 8.5023e-15
16696.28 8.405e-15
16889.62 8.2137e-15
17085.18 8.0452e-15
17283.02 7.7008e-15
17483.15 7.5255e-15
17685.6 7.27e-15
17890.39 7.0232e-15
18097.54 6.7071e-15
18307.11 6.5545e-15
18519.1 6.3612e-15
18690.44 6.0889e-15
18906.87 5.9503e-15
19081.82 5.8417e-15
19302.78 5.6564e-15
19481.38 5.4392e-15
19706.96 5.3032e-15
19889.32 5.1587e-15
20119.61 5.0645e-15
20305.78 4.9038e-15
20493.66 4.8366e-15
20683.29 4.7048e-15
20922.8 4.5977e-15
21116.38 4.5137e-15
21311.78 4.411e-15
21508.98 4.3205e-15
21707.99 4.1642e-15
21908.86 4.1071e-15
22111.59 4.0044e-15
22316.17 3.8953e-15
22522.67 3.8154e-15
22678.78 3.7091e-15
22888.63 3.3437e-15
23100.4 3.2969e-15
23314.16 2.9101e-15
23475.75 2.7461e-15
23692.98 2.7503e-15
23912.22 2.5232e-15
24077.96 2.4355e-15
24300.76 2.3989e-15
24525.59 2.2302e-15
24695.61 2.1917e-15
24924.1 1.9273e-15
25057.54 1.9064e-15
25152.61 1.8071e-15
25247.78 1.7694e-15
25342.85 1.7544e-15
25438.02 1.773e-15
25533.19 1.8428e-15
25628.26 1.9067e-15
25723.43 1.973e-15
25818.6 1.9716e-15
25913.67 1.9452e-15
26008.83 1.8894e-15
26103.9 1.8302e-15
26199.07 1.8531e-15
26294.24 1.853e-15
26389.31 1.8489e-15
26484.48 1.821e-15
26579.65 1.7668e-15
26674.72 1.7205e-15
26769.89 1.6896e-15
26864.96 1.6737e-15
26960.13 1.6933e-15
27055.3 1.6696e-15
27150.37 1.6429e-15
27245.54 1.6095e-15
27340.71 1.6753e-15
27435.78 1.6655e-15
27530.95 1.6123e-15
27626.02 1.5104e-15
27721.19 1.4969e-15
27816.36 1.5058e-15
27911.42 1.5595e-15
28006.59 1.575e-15
28101.76 1.551e-15
28196.83 1.5115e-15
28292.0 1.4827e-15
28387.08 1.473e-15
28482.24 1.4599e-15
28577.41 1.4581e-15
28672.48 1.4131e-15
28767.65 1.4117e-15
28862.82 1.3949e-15
28957.89 1.3702e-15
29053.06 1.3316e-15
29148.13 1.3303e-15
29243.3 1.3543e-15
29338.47 1.3864e-15
29433.54 1.4018e-15
29528.71 1.4145e-15
29623.88 1.3624e-15
29718.95 1.3064e-15
29814.12 1.3022e-15
29909.19 1.3087e-15
30004.36 1.2866e-15
30099.52 1.1984e-15
30194.59 1.0983e-15
30289.76 1.1095e-15
30384.93 1.1994e-15
30480.0 1.2304e-15
30575.17 1.1634e-15
30670.24 1.1481e-15
30765.41 1.1251e-15
30860.58 1.196e-15
30955.65 1.1566e-15
31050.82 1.1999e-15
31145.99 1.2354e-15
31241.06 1.2475e-15
31336.23 1.2232e-15
31431.3 1.228e-15
31526.47 1.2014e-15
31621.64 1.2269e-15
31716.71 1.2415e-15
31811.88 1.2561e-15
31907.04 1.305e-15
32002.12 1.335e-15
32097.29 1.4351e-15
32192.35 1.4988e-15
32287.53 1.6131e-15
32382.69 1.7455e-15
32477.77 1.9176e-15
32572.93 2.0594e-15
32668.1 2.1604e-15
32763.17 2.2518e-15
32858.34 2.1788e-15
32953.41 2.1083e-15
33048.58 1.9133e-15
33143.75 1.7617e-15
33238.82 1.6416e-15
33333.99 1.5308e-15
33429.16 1.3733e-15
33524.23 1.2972e-15
33619.39 1.3129e-15
33714.47 1.38e-15
33809.64 1.4308e-15
33904.81 1.4438e-15
33999.88 1.4323e-15
34095.05 1.434e-15
34190.21 1.458e-15
34285.28 1.4603e-15
34380.45 1.3933e-15
34475.52 1.3372e-15
34570.69 1.2964e-15
34665.86 1.2157e-15
34760.93 1.1233e-15
34856.1 1.1056e-15
34951.27 1.0965e-15
35046.34 1.0672e-15
35141.51 1.0339e-15
35236.58 1.014e-15
35331.75 1.0163e-15
35426.92 1.0282e-15
35521.99 9.8797e-16
35617.16 9.2639e-16
35712.33 8.9729e-16
35807.4 9.2725e-16
35902.56 9.32e-16
35997.63 9.4096e-16
36092.8 9.1986e-16
36187.97 9.1103e-16
36283.04 9.2239e-16
36378.21 9.0493e-16
36473.38 8.9245e-16
36568.45 8.855e-16
36663.62 8.7674e-16
36758.69 8.7724e-16
36853.86 8.6489e-16
36949.03 8.8293e-16
37044.1 8.9136e-16
37139.27 8.9403e-16
37234.44 8.6241e-16
37329.51 8.511e-16
37424.68 7.7404e-16
37519.75 7.6307e-16
37614.92 7.2763e-16
37710.09 7.7584e-16
37805.16 7.8081e-16
37900.32 7.8143e-16
37995.49 7.6316e-16
38090.57 7.2566e-16
38185.73 7.1402e-16
38280.81 7.1968e-16
38375.97 7.6838e-16
38471.14 7.8186e-16
38566.21 8.0093e-16
38661.38 7.8946e-16
38756.55 7.8041e-16
38851.62 7.7944e-16
38946.79 7.5126e-16
39041.86 7.555e-16
39137.03 7.4327e-16
39232.2 7.5004e-16
39327.27 7.1519e-16
39422.44 7.1191e-16
39517.51 7.239e-16
39612.68 7.7311e-16
39707.85 7.8234e-16
39802.92 7.9329e-16
39898.09 7.8399e-16
39993.26 8.3728e-16
40088.32 8.6191e-16
40183.5 8.8945e-16
40278.56 8.5677e-16
40373.73 8.3759e-16
40468.9 8.1106e-16
40563.97 7.8977e-16
40659.14 7.559e-16
40754.31 7.2987e-16
40849.38 7.166e-16
40944.55 7.0081e-16
41039.62 6.7656e-16
41134.79 6.7109e-16
41229.96 6.5736e-16
41325.03 6.7542e-16
41420.2 6.5924e-16
41515.37 6.8475e-16
41610.44 6.7639e-16
41705.61 6.5598e-16
41800.68 6.2482e-16
41895.85 6.3422e-16
41991.02 6.6031e-16
42086.09 6.8039e-16
42181.25 6.557e-16
42276.42 6.4101e-16
42371.49 6.2272e-16
42466.66 6.4169e-16
42561.74 6.1981e-16
42656.9 6.4011e-16
42752.07 6.2921e-16
42847.14 6.2945e-16
42942.31 6.0539e-16
43037.48 6.0697e-16
43132.55 5.9122e-16
43227.72 5.7317e-16
43322.79 5.4455e-16
43417.96 5.5193e-16
43513.13 5.3031e-16
43608.2 5.4907e-16
43703.37 5.3893e-16
43798.54 5.4836e-16
43893.61 5.0692e-16
43988.78 4.9464e-16
44083.85 4.8124e-16
44179.02 4.9079e-16
44274.18 4.7922e-16
44369.25 4.6728e-16
44464.42 4.6046e-16
44559.59 4.6737e-16
44654.66 4.9338e-16
44749.83 4.6646e-16
44844.9 4.1727e-16
44940.07 4.2771e-16
45035.24 5.2473e-16
45130.31 5.4293e-16
45225.48 5.4089e-16
45320.65 5.1134e-16
45415.72 4.4924e-16
45510.89 4.8815e-16
45605.96 4.7106e-16
45701.13 5.3726e-16
45796.3 4.7841e-16
45891.37 4.7992e-16
45986.54 4.4674e-16
46081.71 4.9889e-16
46176.78 5.1333e-16
46271.95 5.656e-16
46367.11 5.6217e-16
46462.18 5.6113e-16
46557.35 5.1882e-16
46652.42 5.2569e-16
46747.59 4.8345e-16
46842.76 5.2155e-16
46937.83 5.0575e-16
47033.0 5.1973e-16
47128.07 4.6605e-16
47223.24 4.5029e-16
47318.41 4.0815e-16
47413.48 4.0375e-16
47508.65 3.5378e-16
47603.82 3.9119e-16
47698.89 3.4836e-16
47794.06 4.1682e-16
47889.13 3.0852e-16
47984.3 3.8217e-16
48079.47 4.2931e-16
48174.54 4.8117e-16
48269.71 4.0302e-16
48364.88 4.1837e-16
48459.95 4.0614e-16
48555.11 4.5325e-16
48650.18 3.4821e-16
48746.33 3.3458e-16
49233.8 3.6941e-16
49726.13 4.0458e-16
50223.4 4.4011e-16
50725.63 4.7599e-16
51232.88 5.1223e-16
51293.38 5.1656e-16
51590.69 5.395e-16
51887.99 5.9008e-16
52185.3 7.1177e-16
52482.6 7.1967e-16
52780.01 6.468e-16
53077.31 6.6948e-16
53374.61 7.0225e-16
53671.91 5.4826e-16
53969.22 4.9884e-16
54266.62 5.3076e-16
54563.93 5.6239e-16
54861.23 5.5339e-16
55158.54 5.5897e-16
55455.84 5.6789e-16
55753.24 6.1471e-16
56050.55 7.1257e-16
56347.85 8.007e-16
56645.16 8.414e-16
56942.47 8.8488e-16
57239.87 8.8829e-16
57537.17 8.6069e-16
57834.47 8.288e-16
58131.78 8.5515e-16
58429.08 8.4365e-16
58726.49 9.0727e-16
59023.79 9.0866e-16
59321.1 9.1811e-16
59618.4 1.0008e-15
59915.71 1.2117e-15
60213.11 1.3671e-15
60510.41 1.3998e-15
60807.72 1.439e-15
61105.02 1.7284e-15
61402.32 2.3004e-15
61699.73 3.3115e-15
61997.03 4.0949e-15
62294.34 4.1074e-15
62591.64 3.5892e-15
62888.94 2.9339e-15
63186.35 2.417e-15
63483.65 2.0361e-15
63780.96 1.751e-15
64078.26 1.5636e-15
64375.57 1.392e-15
64672.97 1.3113e-15
64970.27 1.2332e-15
65267.57 1.1781e-15
65564.88 1.144e-15
65862.19 1.1784e-15
66159.59 1.2158e-15
66456.89 1.2323e-15
66754.2 1.2341e-15
67051.5 1.2137e-15
67348.81 1.2191e-15
67646.21 1.1995e-15
67943.52 1.1875e-15
68240.82 1.1855e-15
68538.13 1.208e-15
68835.43 1.2394e-15
69132.84 1.2836e-15
69430.14 1.3858e-15
69727.44 1.6086e-15
70024.74 1.6769e-15
70322.05 1.5718e-15
70619.45 1.5814e-15
70916.76 1.5912e-15
71214.06 1.6178e-15
71511.37 1.6292e-15
71808.67 1.6935e-15
72106.07 1.7344e-15
72403.38 1.8232e-15
72700.69 1.8777e-15
72997.99 1.9357e-15
73295.29 2.1188e-15
73592.69 2.3173e-15
73890.0 2.4875e-15
74187.3 2.6889e-15
74484.6 2.92e-15
75079.22 3.2384e-15
75673.92 3.7686e-15
76268.53 3.949e-15
76863.14 3.8222e-15
77457.85 3.6663e-15
78052.46 3.5529e-15
78647.17 3.2677e-15
79241.77 2.848e-15
79836.39 2.4465e-15
80431.09 2.1056e-15
81025.7 1.8363e-15
81620.31 1.6708e-15
82215.01 1.6052e-15
82809.62 1.6207e-15
83404.23 1.65e-15
83998.94 1.6633e-15
84593.55 1.7393e-15
85188.26 1.8674e-15
85782.87 1.9357e-15
86377.48 1.8583e-15
86972.19 1.6235e-15
87566.79 1.3267e-15
88161.41 1.0751e-15
88756.11 8.9829e-16
89350.72 8.1278e-16
89945.33 7.7243e-16
90540.03 6.6991e-16
91134.64 6.2774e-16
91729.35 6.1099e-16
92323.96 5.9917e-16
92918.57 5.9142e-16
93513.27 5.7773e-16
94107.88 5.6348e-16
94702.5 5.7197e-16
95297.2 5.7515e-16
95891.81 5.6151e-16
96486.41 5.9764e-16
97081.13 5.6966e-16
97675.74 5.4094e-16
98270.45 5.365e-16
98865.05 5.1805e-16
99459.67 5.2464e-16
100054.37 5.1146e-16
100648.98 5.0784e-16
101243.59 5.0656e-16
101838.29 4.9501e-16
102432.9 4.9085e-16
103027.51 4.9722e-16
103622.21 5.0947e-16
104216.83 5.3513e-16
104811.54 5.8786e-16
105406.14 6.3024e-16
106000.75 6.3168e-16
106595.47 6.1769e-16
107190.07 6.1235e-16
107784.68 6.1389e-16
108379.38 6.1181e-16
108974.0 6.5219e-16
109568.61 7.5447e-16
110163.31 8.7209e-16
110757.92 9.5933e-16
111352.63 1.3083e-15
111947.23 1.9319e-15
112541.85 2.172e-15
113136.55 1.8709e-15
113731.16 1.5042e-15
114325.77 1.2255e-15
114920.47 1.0396e-15
115515.09 9.0977e-16
116109.69 8.0973e-16
116704.4 7.4986e-16
117299.01 7.1407e-16
117893.72 7.0788e-16
118488.33 7.341e-16
119082.94 7.6379e-16
119677.65 7.7909e-16
120272.26 7.6636e-16
120866.87 7.3167e-16
121461.57 7.0738e-16
122056.18 7.0689e-16
122650.79 7.3863e-16
123245.49 7.742e-16
123840.11 7.9245e-16
124434.81 8.3011e-16
125029.42 8.656e-16
125624.03 9.1756e-16
126218.74 9.6358e-16
126813.34 9.909e-16
127407.96 1.1319e-15
128002.67 1.4491e-15
128597.27 1.2184e-15
129191.87 7.1921e-16
129786.59 5.7979e-16
130381.19 5.4862e-16
130975.8 5.3663e-16
131570.51 5.3318e-16
132165.12 5.2508e-16
132759.83 5.1232e-16
133354.44 5.1094e-16
133949.04 5.058e-16
134543.76 5.0926e-16
135138.36 5.1253e-16
135732.97 4.997e-16
136327.68 4.8651e-16
136922.29 4.6849e-16
137516.89 4.5896e-16
138111.61 4.5413e-16
138706.21 4.4338e-16
139300.93 4.5912e-16
139895.53 4.5486e-16
140490.14 4.4722e-16
141084.85 4.4113e-16
141679.46 4.4883e-16
142274.06 4.4882e-16
143317.77 4.7308e-16
144150.31 4.4152e-16
144982.84 3.9974e-16
145815.37 3.7618e-16
146647.81 3.6821e-16
147480.33 3.5971e-16
148312.86 3.5581e-16
149145.3 3.6327e-16
149977.83 3.6306e-16
150810.36 3.5948e-16
151642.79 3.5989e-16
152475.32 3.6555e-16
153307.86 3.7039e-16
154140.3 3.9877e-16
154972.83 4.8859e-16
155805.36 6.1541e-16
156637.78 4.8389e-16
157470.32 3.9993e-16
158302.85 4.0358e-16
159135.38 4.0927e-16
159967.81 4.1918e-16
160800.36 4.1601e-16
161632.87 4.2137e-16
162465.32 4.489e-16
163297.83 5.1643e-16
164130.36 5.8417e-16
164962.81 6.0301e-16
165795.32 5.5927e-16
166627.87 5.396e-16
167460.29 5.4997e-16
168292.83 5.5337e-16
169125.36 5.6294e-16
169957.78 6.3468e-16
170790.32 6.3717e-16
171622.85 5.7541e-16
172455.38 5.7312e-16
173287.82 5.8508e-16
174120.36 5.6952e-16
174952.87 5.0804e-16
175785.32 4.763e-16
176617.85 4.6346e-16
177450.38 4.5776e-16
178282.82 4.5214e-16
179115.33 4.4861e-16
179947.87 4.3247e-16
180780.31 4.2453e-16
181612.84 4.2004e-16
182445.37 4.2092e-16
183277.79 4.2229e-16
184110.33 4.2196e-16
184942.87 4.2463e-16
185775.4 4.6566e-16
186607.82 5.8232e-16
187440.37 6.932e-16
188272.88 5.3907e-16
189105.33 4.4568e-16
189937.86 4.3544e-16
190770.39 4.2854e-16
191602.82 4.1718e-16
192435.37 4.2365e-16
193267.88 4.2756e-16
194100.31 4.2358e-16
194932.84 4.2332e-16
195765.37 4.2078e-16
196597.82 4.1965e-16
197430.34 4.1725e-16
198262.88 4.2079e-16
199095.41 4.2292e-16
199927.83 4.2365e-16
200760.37 4.1863e-16
202425.34 4.1343e-16
204090.39 4.3173e-16
205755.37 4.3011e-16
207420.32 4.2768e-16
209085.38 4.3625e-16
210750.34 4.3972e-16
212415.41 4.3832e-16
214080.38 4.4675e-16
215745.34 4.5319e-16
217410.41 4.5133e-16
219075.38 4.4921e-16
220740.33 4.5231e-16
222405.38 4.6333e-16
224070.36 4.6674e-16
225735.42 4.6782e-16
227400.38 4.6875e-16
229065.35 4.7531e-16
230730.42 4.8207e-16
232395.38 4.8458e-16
234060.35 4.804e-16
235725.39 4.8499e-16
237390.37 4.9175e-16
239055.42 4.9078e-16
240720.39 4.9026e-16
242385.35 4.9834e-16
244050.42 4.9997e-16
245715.39 4.8768e-16
247380.35 4.9166e-16
249045.42 4.917e-16
250710.39 4.8689e-16
252375.43 4.8183e-16
254040.39 4.7943e-16
255705.36 4.8989e-16
257370.43 5.4926e-16
259035.39 6.0701e-16
260700.36 5.1499e-16
262365.41 4.9392e-16
264030.38 4.9271e-16
265695.43 4.9352e-16
267360.4 4.935e-16
269025.39 4.9531e-16
270690.45 4.9503e-16
272355.38 4.9679e-16
274020.35 5.0413e-16
275685.43 5.0961e-16
277350.4 5.1123e-16
279015.45 5.0395e-16
280680.42 5.0619e-16
282345.38 5.0927e-16
284010.44 5.0646e-16
285675.4 5.0977e-16
287340.37 5.1026e-16
289005.42 5.1197e-16
290670.39 5.0869e-16
292335.44 5.1145e-16
294000.44 5.1341e-16
295665.4 5.1589e-16
297330.46 5.1936e-16
298995.42 5.2122e-16
300660.39 5.1708e-16
302325.44 5.272e-16
303990.41 5.316e-16
305655.46 5.2938e-16
307320.43 5.3088e-16
308985.39 5.3407e-16
310650.45 5.4516e-16
312315.44 5.4536e-16
313980.41 5.406e-16
315645.46 5.4522e-16
317310.4 5.5626e-16
318975.49 5.6643e-16
320640.45 5.7207e-16
322305.41 5.7245e-16
323970.47 5.7708e-16
325635.43 5.948e-16
327300.4 6.1225e-16
328965.49 6.3025e-16
330630.45 6.067e-16
332295.48 6.2616e-16
333960.44 8.7472e-16
335625.43 7.2672e-16
337290.46 6.4624e-16
338955.42 6.1255e-16
340620.39 6.1608e-16
342285.48 6.2585e-16
343950.41 6.2182e-16
