# col1 col2
# An Atlas of Galaxy Spectral Energy Distributions from the Ultraviolet to the Mid-Infrared
# Brown et al. (2014)
# http://dx.doi.org/10.5072/03/529D3551F0117
# 
# Column 1 : Restframe Wavelength (Angstrom)
# Column 2 : Flux per unit wavelength (ergs/s/cm^2/Angstrom)
# Column 3 : Observed wavelength (Angstrom)
# Column 4 : Source (0 = model, 1 = Optical Spectrum, 2 = Akari, 3 = Spitzer IRS)
# 
102.0 1.8299e-25
103.9 2.6572e-25
106.07 3.9123e-25
108.05 5.8402e-25
110.05 9.7147e-25
113.92 1.8682e-24
117.92 3.3375e-24
120.95 1.5185e-23
124.91 2.4458e-23
126.94 2.9952e-23
128.12 3.3684e-23
131.1 4.4507e-23
132.01 5.5773e-23
133.85 6.6134e-23
136.96 9.8725e-23
140.15 1.2602e-22
143.09 4.1536e-22
147.1 1.3044e-21
150.87 1.6766e-21
155.1 2.1648e-21
159.08 2.7889e-21
162.03 3.3299e-21
166.19 4.2504e-21
170.06 5.2653e-21
172.82 6.1862e-21
176.85 7.5584e-21
180.14 8.7383e-21
181.8 9.6256e-21
186.04 1.1572e-20
190.81 1.4435e-20
193.91 1.6536e-20
197.97 1.9428e-20
202.12 2.2878e-20
204.93 2.567e-20
210.19 2.9541e-20
216.08 3.8232e-20
220.09 4.4099e-20
223.15 4.8131e-20
226.78 5.5389e-20
229.94 9.0662e-20
234.21 1.6271e-19
240.22 2.2617e-19
245.81 2.4012e-19
252.12 2.8538e-19
256.81 2.6389e-19
259.78 3.1947e-19
264.0 3.5762e-19
268.91 3.8764e-19
273.91 4.1728e-19
279.0 4.4919e-19
284.19 4.8242e-19
290.14 4.9938e-19
296.21 5.5008e-19
301.03 5.8e-19
308.04 6.3889e-19
318.13 7.3018e-19
327.8 8.1363e-19
337.76 8.9213e-19
348.02 9.6923e-19
356.95 1.0433e-18
366.1 1.1309e-18
374.63 1.2007e-18
385.13 1.2429e-18
395.01 1.3691e-18
405.14 1.4704e-18
413.62 1.5397e-18
422.28 1.5865e-18
430.14 1.6422e-18
441.17 1.7435e-18
451.45 1.8048e-18
459.84 1.8554e-18
469.47 1.925e-18
480.4 2.0111e-18
490.46 2.0344e-18
499.58 2.1401e-18
506.53 2.1401e-18
512.4 2.3411e-18
519.52 2.3957e-18
530.4 2.4402e-18
540.26 2.4346e-18
550.31 2.5611e-18
560.54 2.738e-18
569.65 2.9136e-18
580.24 2.9203e-18
589.67 3.122e-18
600.63 3.1436e-18
610.39 3.072e-18
620.31 3.5928e-18
630.38 3.719e-18
640.63 3.832e-18
649.54 4.0684e-18
658.58 4.2211e-18
664.67 4.4099e-18
675.47 4.4919e-18
684.87 4.4507e-18
694.39 5.2532e-18
705.68 5.1337e-18
715.49 5.8268e-18
725.45 6.0733e-18
735.54 6.3158e-18
745.77 6.9411e-18
754.41 7.3863e-18
764.9 7.5932e-18
775.54 8.4611e-18
784.52 9.0038e-18
795.44 9.4935e-18
804.65 9.9868e-18
815.84 1.0433e-17
825.29 1.1466e-17
834.84 9.5373e-18
844.51 1.223e-17
854.29 1.266e-17
864.18 1.3754e-17
874.19 1.4908e-17
884.31 1.6422e-17
894.55 1.7516e-17
904.91 1.7395e-17
915.39 2.9002e-17
925.99 2.2409e-16
934.56 4.9823e-16
945.38 9.9181e-16
954.13 1.5081e-15
965.17 1.5397e-15
974.1 2.0722e-16
985.38 1.075e-15
994.5 1.3441e-15
1006.02 2.3358e-15
1015.33 2.3902e-15
1024.72 1.0775e-15
1034.2 1.4977e-15
1046.18 3.4232e-15
1055.86 3.4074e-15
1065.63 2.4402e-15
1075.49 3.1436e-15
1085.44 2.2617e-15
1095.48 3.4628e-15
1105.62 3.353e-15
1115.85 3.1292e-15
1126.17 2.7569e-15
1133.98 3.9485e-15
1144.47 3.5353e-15
1155.06 3.9485e-15
1165.75 4.0872e-15
1173.83 2.5729e-15
1184.69 4.0404e-15
1195.65 2.3902e-15
1203.94 1.5116e-15
1215.08 1.3105e-15
1226.32 2.8147e-15
1234.82 4.758e-15
1246.25 5.3263e-15
1254.89 4.9594e-15
1263.59 4.0872e-15
1275.28 5.8402e-15
1284.12 6.3013e-15
1296.0 4.4507e-15
1304.99 4.3896e-15
1314.03 6.1578e-15
1326.19 5.8537e-15
1335.38 4.8689e-15
1344.64 6.4778e-15
1353.96 6.2723e-15
1366.49 5.3756e-15
1375.96 5.8537e-15
1385.5 5.9488e-15
1395.1 5.1455e-15
1404.77 5.388e-15
1414.51 5.463e-15
1424.31 5.8134e-15
1434.19 5.7468e-15
1440.81 6.2148e-15
1447.46 6.4184e-15
1454.14 6.172e-15
1464.22 5.5517e-15
1474.37 5.616e-15
1484.59 5.8672e-15
1494.88 6.0733e-15
1505.24 5.6549e-15
1512.19 4.8465e-15
1515.67 5.3756e-15
1526.18 5.1219e-15
1536.76 4.2798e-15
1543.85 5.0284e-15
1554.55 4.7253e-15
1565.33 4.78e-15
1576.18 5.1812e-15
1583.45 5.616e-15
1594.43 5.7601e-15
1605.48 5.6941e-15
1616.61 5.8e-15
1624.07 5.388e-15
1635.33 5.8942e-15
1646.67 6.0315e-15
1654.27 5.4755e-15
1665.73 6.1578e-15
1673.42 5.2291e-15
1677.28 6.2005e-15
1685.02 6.6746e-15
1696.7 6.2005e-15
1704.53 5.9078e-15
1716.35 5.4882e-15
1724.27 5.5008e-15
1736.22 6.0177e-15
1744.24 5.8807e-15
1756.33 6.4629e-15
1764.43 5.7733e-15
1776.66 5.9762e-15
1784.87 6.1578e-15
1793.1 6.7831e-15
1805.53 6.7519e-15
1813.87 6.0873e-15
1826.44 6.3013e-15
1834.87 5.99e-15
1843.34 5.4253e-15
1856.12 5.4129e-15
1864.69 5.668e-15
1873.29 6.3742e-15
1886.28 5.7733e-15
1894.98 5.5517e-15
1903.73 5.9625e-15
1916.93 5.6941e-15
1925.77 5.6419e-15
1934.66 5.8537e-15
1943.59 6.1578e-15
1957.07 5.7336e-15
1966.1 6.4927e-15
1975.17 6.7209e-15
1984.29 6.3013e-15
1993.45 6.1014e-15
2007.27 6.3596e-15
2016.53 6.0454e-15
2025.84 6.4778e-15
2035.19 6.0594e-15
2044.59 6.4332e-15
2054.02 6.1154e-15
2063.5 6.1154e-15
2073.03 6.69e-15
2077.81 6.3158e-15
2087.4 6.644e-15
2097.03 6.2291e-15
2106.71 6.2579e-15
2116.44 6.3596e-15
2126.21 6.4927e-15
2136.02 5.9078e-15
2145.88 6.172e-15
2155.79 6.4927e-15
2165.74 6.2579e-15
2175.73 6.2005e-15
2185.78 6.0873e-15
2195.86 6.448e-15
2206.0 6.2435e-15
2216.18 5.8672e-15
2226.41 5.6557e-15
2236.69 6.179e-15
2247.01 5.8662e-15
2257.38 5.5436e-15
2262.59 5.7545e-15
2273.03 5.9628e-15
2283.52 6.1928e-15
2294.06 5.8255e-15
2304.65 5.818e-15
2315.29 5.4603e-15
2325.98 3.978e-15
2336.71 4.9787e-15
2347.5 4.8369e-15
2352.91 5.3554e-15
2363.77 4.8111e-15
2374.68 5.0199e-15
2385.64 4.6042e-15
2396.66 5.0305e-15
2407.72 4.787e-15
2413.27 4.9693e-15
2424.41 5.3797e-15
2435.6 5.1549e-15
2446.84 5.5422e-15
2452.48 5.4691e-15
2463.8 5.4373e-15
2475.17 5.2102e-15
2486.6 5.3867e-15
2492.33 5.0764e-15
2503.83 5.7681e-15
2515.39 5.0062e-15
2527.0 4.9202e-15
2532.83 5.0492e-15
2544.52 4.9397e-15
2556.26 5.4348e-15
2562.16 5.2411e-15
2573.98 5.6481e-15
2585.86 5.564e-15
2597.8 5.4686e-15
2603.79 5.2495e-15
2615.81 5.1833e-15
2627.88 5.5093e-15
2633.94 5.7855e-15
2646.1 6.4097e-15
2652.2 6.6387e-15
2664.44 5.8154e-15
2676.74 6.2098e-15
2682.91 6.1848e-15
2695.29 5.8725e-15
2707.73 6.1281e-15
2713.97 5.7356e-15
2726.5 5.729e-15
2732.79 6.1001e-15
2745.4 5.1149e-15
2758.07 5.2765e-15
2764.43 5.5412e-15
2777.19 5.8629e-15
2783.59 5.4875e-15
2796.44 4.3041e-15
2802.89 4.6897e-15
2815.82 5.8433e-15
2822.31 6.2794e-15
2835.34 6.0178e-15
2841.88 5.8438e-15
2855.0 5.5747e-15
2868.17 6.3496e-15
2874.79 6.4122e-15
2888.05 6.3319e-15
2894.71 6.3066e-15
2908.07 7.036e-15
2928.23 6.7316e-15
2948.53 6.6362e-15
2968.97 6.8506e-15
2989.55 6.895e-15
3010.27 7.0526e-15
3031.14 7.0822e-15
3052.15 7.0956e-15
3073.3 7.1748e-15
3087.49 7.2672e-15
3108.89 7.2979e-15
3130.44 7.2116e-15
3152.14 7.2757e-15
3166.69 7.3187e-15
3188.64 6.9069e-15
3210.74 7.2633e-15
3233.0 6.8547e-15
3247.92 7.4227e-15
3270.44 7.7701e-15
3293.1 7.7143e-15
3308.3 7.7246e-15
3323.58 7.6288e-15
3331.24 7.7759e-15
3338.92 7.2953e-15
3346.61 7.8584e-15
3354.33 7.5618e-15
3362.06 7.1932e-15
3369.81 7.5896e-15
3377.58 7.4048e-15
3385.36 7.5999e-15
3393.17 7.9818e-15
3400.99 8.4996e-15
3408.83 7.7036e-15
3416.69 7.7267e-15
3424.57 8.1901e-15
3432.46 8.4642e-15
3440.37 8.1262e-15
3448.3 7.5021e-15
3456.25 7.6469e-15
3464.22 7.291e-15
3472.21 8.0369e-15
3480.21 7.4711e-15
3488.23 7.8287e-15
3496.27 7.7266e-15
3504.33 8.0778e-15
3512.41 7.809e-15
3520.51 8.2585e-15
3528.63 7.4166e-15
3536.76 8.1566e-15
3544.91 8.4881e-15
3553.08 8.5727e-15
3560.48 8.9493e-15
3563.14 9.6976e-15
3565.8 9.2043e-15
3568.46 8.421e-15
3571.12 9.3787e-15
3573.78 9.6483e-15
3576.44 8.9342e-15
3579.1 7.4052e-15
3581.76 6.5539e-15
3584.42 7.562e-15
3587.09 6.5688e-15
3589.75 7.8707e-15
3592.41 7.9316e-15
3595.07 8.366e-15
3597.73 8.6273e-15
3600.39 8.1836e-15
3603.05 8.4995e-15
3605.71 7.1857e-15
3608.37 7.2427e-15
3611.03 7.6888e-15
3613.69 7.3432e-15
3616.35 8.8266e-15
3619.01 7.6419e-15
3621.67 6.7281e-15
3624.33 7.1897e-15
3626.99 8.3912e-15
3629.65 7.9831e-15
3632.31 8.3281e-15
3634.97 7.8185e-15
3637.63 7.7034e-15
3640.29 8.8784e-15
3642.95 8.0969e-15
3645.61 7.8233e-15
3648.27 8.0603e-15
3650.93 8.3987e-15
3653.59 8.6236e-15
3656.25 9.3732e-15
3658.91 8.3121e-15
3661.57 8.5445e-15
3664.24 8.8169e-15
3666.9 7.6702e-15
3669.56 8.3973e-15
3672.22 8.9737e-15
3674.88 8.6954e-15
3677.54 8.9775e-15
3680.2 8.6465e-15
3682.86 8.6687e-15
3685.52 9.4587e-15
3688.18 1.0038e-14
3690.84 9.0687e-15
3693.5 8.8464e-15
3696.16 8.1582e-15
3698.82 8.2451e-15
3701.48 7.1325e-15
3704.14 7.1966e-15
3706.8 8.359e-15
3709.46 7.5827e-15
3712.12 9.2893e-15
3714.78 9.5048e-15
3717.44 1.3843e-14
3720.1 1.7645e-14
3722.76 2.3339e-14
3725.42 2.4768e-14
3728.08 2.1397e-14
3730.74 1.663e-14
3733.4 1.2933e-14
3736.06 1.0916e-14
3738.72 9.788e-15
3741.39 8.8779e-15
3744.05 8.79e-15
3746.71 8.884e-15
3749.37 9.6639e-15
3752.03 1.0049e-14
3754.69 9.1986e-15
3757.35 9.2788e-15
3760.01 1.0353e-14
3762.67 1.001e-14
3765.33 9.9496e-15
3767.99 1.0418e-14
3770.65 1.0217e-14
3773.31 1.0753e-14
3775.97 1.1067e-14
3778.63 1.0697e-14
3781.29 1.1497e-14
3783.95 1.2071e-14
3786.61 1.1263e-14
3789.27 9.6756e-15
3791.93 8.5512e-15
3794.59 9.2934e-15
3797.25 9.4803e-15
3799.91 8.8941e-15
3802.57 1.0266e-14
3805.23 1.1862e-14
3807.89 1.1169e-14
3810.55 1.1792e-14
3813.21 1.1716e-14
3815.87 1.1604e-14
3818.54 1.173e-14
3821.2 1.1117e-14
3823.86 9.5067e-15
3826.52 8.7924e-15
3829.18 8.3203e-15
3831.84 7.2643e-15
3834.5 7.5321e-15
3837.16 9.0424e-15
3839.82 9.3075e-15
3842.48 1.006e-14
3845.14 1.2449e-14
3847.8 1.1984e-14
3850.46 1.2348e-14
3853.12 1.2612e-14
3855.78 1.3429e-14
3858.44 1.2858e-14
3861.1 1.2958e-14
3863.76 1.3091e-14
3866.42 1.3838e-14
3869.08 1.3091e-14
3871.74 1.2141e-14
3874.4 1.1176e-14
3877.06 1.0786e-14
3879.72 1.0434e-14
3882.38 9.9658e-15
3885.04 9.1819e-15
3887.7 9.0353e-15
3890.36 1.035e-14
3893.03 1.1249e-14
3895.69 1.1897e-14
3898.35 1.2471e-14
3901.01 1.2919e-14
3903.67 1.2908e-14
3906.33 1.2181e-14
3908.99 1.2948e-14
3911.65 1.3684e-14
3914.31 1.2892e-14
3916.97 1.2173e-14
3919.63 1.1792e-14
3922.29 1.2306e-14
3924.95 1.1739e-14
3927.61 1.0377e-14
3930.27 1.0052e-14
3932.93 9.78e-15
3935.59 9.3436e-15
3938.25 1.0125e-14
3940.91 1.2112e-14
3943.57 1.2864e-14
3946.23 1.3055e-14
3948.89 1.3185e-14
3951.55 1.29e-14
3954.21 1.2625e-14
3956.87 1.1272e-14
3959.53 1.091e-14
3962.19 1.0775e-14
3964.85 9.7649e-15
3967.51 9.1211e-15
3970.18 8.9931e-15
3972.84 9.7766e-15
3975.5 1.1673e-14
3978.16 1.1899e-14
3980.82 1.1897e-14
3983.48 1.2856e-14
3986.14 1.3695e-14
3988.8 1.3904e-14
3991.46 1.3688e-14
3994.12 1.407e-14
3996.78 1.4515e-14
3999.44 1.3984e-14
4002.1 1.4144e-14
4004.76 1.3416e-14
4007.42 1.3804e-14
4010.08 1.512e-14
4012.74 1.4753e-14
4015.4 1.4224e-14
4018.06 1.4002e-14
4020.72 1.4692e-14
4023.38 1.4632e-14
4026.04 1.3617e-14
4028.7 1.4149e-14
4031.36 1.3768e-14
4034.02 1.4275e-14
4036.68 1.4076e-14
4039.34 1.4688e-14
4042.0 1.4349e-14
4044.67 1.5019e-14
4047.33 1.4244e-14
4049.99 1.4494e-14
4052.65 1.401e-14
4055.31 1.4056e-14
4057.97 1.4131e-14
4060.63 1.3934e-14
4063.29 1.3884e-14
4065.95 1.362e-14
4068.61 1.3737e-14
4071.27 1.4469e-14
4073.93 1.4425e-14
4076.59 1.3779e-14
4079.25 1.3502e-14
4081.91 1.3227e-14
4084.57 1.3066e-14
4087.23 1.2962e-14
4089.89 1.2345e-14
4092.55 1.2444e-14
4095.21 1.1896e-14
4097.87 1.1399e-14
4100.53 1.0657e-14
4103.19 1.1166e-14
4105.85 1.2344e-14
4108.51 1.1734e-14
4111.17 1.2612e-14
4113.83 1.3035e-14
4116.49 1.2978e-14
4119.15 1.357e-14
4121.82 1.3955e-14
4124.48 1.3576e-14
4127.14 1.3588e-14
4129.8 1.4016e-14
4132.46 1.408e-14
4135.12 1.4224e-14
4137.78 1.4729e-14
4140.44 1.4428e-14
4143.1 1.4317e-14
4145.76 1.4201e-14
4148.42 1.4353e-14
4151.08 1.3668e-14
4153.74 1.4461e-14
4156.4 1.5163e-14
4159.06 1.4376e-14
4161.72 1.4135e-14
4164.38 1.4304e-14
4167.04 1.4769e-14
4169.7 1.4167e-14
4172.36 1.4043e-14
4175.02 1.4387e-14
4177.68 1.4345e-14
4180.34 1.4053e-14
4183.0 1.4208e-14
4185.66 1.4107e-14
4188.32 1.4178e-14
4190.98 1.4347e-14
4193.64 1.4615e-14
4196.3 1.4138e-14
4198.97 1.4128e-14
4201.63 1.4558e-14
4204.29 1.4253e-14
4206.95 1.4958e-14
4209.61 1.5212e-14
4212.27 1.4164e-14
4214.93 1.4551e-14
4217.59 1.3977e-14
4220.25 1.2931e-14
4222.91 1.3552e-14
4225.57 1.4191e-14
4228.23 1.4146e-14
4230.89 1.4034e-14
4233.55 1.3892e-14
4236.21 1.4048e-14
4238.87 1.4693e-14
4241.53 1.3998e-14
4244.19 1.4274e-14
4246.85 1.351e-14
4249.51 1.359e-14
4252.17 1.3685e-14
4254.83 1.3887e-14
4257.49 1.384e-14
4260.15 1.4048e-14
4262.81 1.3797e-14
4265.47 1.3895e-14
4268.13 1.3726e-14
4270.79 1.3996e-14
4273.45 1.3814e-14
4276.12 1.4268e-14
4278.78 1.3672e-14
4281.44 1.3348e-14
4284.1 1.2975e-14
4286.76 1.3092e-14
4289.42 1.3098e-14
4292.08 1.2608e-14
4294.74 1.2762e-14
4297.4 1.2719e-14
4300.06 1.2697e-14
4302.72 1.2629e-14
4305.38 1.2659e-14
4308.04 1.2633e-14
4310.7 1.3084e-14
4313.36 1.2892e-14
4316.02 1.317e-14
4318.68 1.3244e-14
4321.34 1.3454e-14
4324.0 1.3432e-14
4326.66 1.3071e-14
4329.32 1.3402e-14
4331.98 1.3372e-14
4334.64 1.3471e-14
4337.3 1.3601e-14
4339.96 1.3357e-14
4342.62 1.3041e-14
4345.28 1.2982e-14
4347.94 1.3001e-14
4350.6 1.2795e-14
4353.27 1.3793e-14
4355.93 1.4019e-14
4358.59 1.4039e-14
4361.25 1.4099e-14
4363.91 1.4294e-14
4366.57 1.4236e-14
4369.23 1.4243e-14
4371.89 1.3887e-14
4374.55 1.3886e-14
4377.21 1.3189e-14
4379.87 1.379e-14
4382.53 1.3628e-14
4385.19 1.3757e-14
4387.85 1.3936e-14
4390.51 1.3943e-14
4393.17 1.4366e-14
4395.83 1.3874e-14
4398.49 1.4128e-14
4401.15 1.4345e-14
4403.81 1.3406e-14
4406.47 1.365e-14
4409.13 1.4445e-14
4411.79 1.45e-14
4414.45 1.4001e-14
4417.11 1.4088e-14
4419.77 1.408e-14
4422.43 1.4515e-14
4425.09 1.4788e-14
4427.75 1.4567e-14
4430.42 1.399e-14
4433.08 1.3979e-14
4435.74 1.4743e-14
4438.4 1.4466e-14
4441.06 1.4138e-14
4443.72 1.4182e-14
4446.38 1.4442e-14
4449.04 1.4716e-14
4451.7 1.4799e-14
4454.36 1.4698e-14
4457.02 1.4531e-14
4459.68 1.4304e-14
4462.34 1.491e-14
4465.0 1.4772e-14
4467.66 1.487e-14
4470.32 1.4765e-14
4472.98 1.5002e-14
4475.64 1.5195e-14
4478.3 1.4825e-14
4480.96 1.4966e-14
4483.62 1.5204e-14
4486.28 1.4833e-14
4488.94 1.4496e-14
4491.6 1.5125e-14
4494.26 1.5653e-14
4496.92 1.5433e-14
4499.58 1.5018e-14
4502.24 1.5542e-14
4504.9 1.5201e-14
4507.57 1.4803e-14
4510.23 1.4732e-14
4512.89 1.4944e-14
4515.55 1.4215e-14
4518.21 1.4064e-14
4520.87 1.3924e-14
4523.53 1.4154e-14
4526.19 1.3989e-14
4528.85 1.4406e-14
4531.51 1.451e-14
4534.17 1.3846e-14
4536.83 1.4227e-14
4539.49 1.4034e-14
4542.15 1.4165e-14
4544.81 1.4468e-14
4547.47 1.4129e-14
4550.13 1.3637e-14
4552.79 1.4087e-14
4555.45 1.4211e-14
4558.11 1.4537e-14
4560.77 1.4528e-14
4563.43 1.4687e-14
4566.09 1.5283e-14
4568.75 1.5455e-14
4571.41 1.511e-14
4574.07 1.4436e-14
4576.73 1.4861e-14
4579.39 1.5192e-14
4582.05 1.4427e-14
4584.72 1.4752e-14
4587.38 1.4944e-14
4590.04 1.4631e-14
4592.7 1.5267e-14
4595.36 1.4614e-14
4598.02 1.4355e-14
4600.68 1.4494e-14
4603.34 1.3925e-14
4606.0 1.4108e-14
4608.66 1.45e-14
4611.32 1.4626e-14
4613.98 1.4949e-14
4616.64 1.552e-14
4619.3 1.5515e-14
4621.96 1.4326e-14
4624.62 1.5213e-14
4627.28 1.4277e-14
4629.94 1.4735e-14
4632.6 1.5384e-14
4635.26 1.476e-14
4637.92 1.4996e-14
4640.58 1.4526e-14
4643.24 1.4673e-14
4645.9 1.49e-14
4648.56 1.5019e-14
4651.22 1.487e-14
4653.88 1.5117e-14
4656.54 1.5263e-14
4659.21 1.4656e-14
4661.87 1.4931e-14
4664.53 1.4775e-14
4667.19 1.44e-14
4669.85 1.455e-14
4672.51 1.4876e-14
4675.17 1.4644e-14
4677.83 1.4719e-14
4680.49 1.5168e-14
4683.15 1.5096e-14
4685.81 1.4784e-14
4688.47 1.4741e-14
4691.13 1.4931e-14
4693.79 1.5296e-14
4696.45 1.5178e-14
4699.11 1.4743e-14
4701.77 1.4621e-14
4704.43 1.468e-14
4707.09 1.4389e-14
4709.75 1.5105e-14
4712.41 1.5097e-14
4715.07 1.6077e-14
4717.73 1.5453e-14
4720.39 1.5019e-14
4723.05 1.5187e-14
4725.71 1.4545e-14
4728.37 1.4658e-14
4731.03 1.4323e-14
4733.69 1.5011e-14
4736.36 1.5135e-14
4739.02 1.4726e-14
4741.68 1.4382e-14
4744.34 1.4653e-14
4747.0 1.538e-14
4749.66 1.4979e-14
4752.32 1.5134e-14
4754.98 1.5072e-14
4757.64 1.4591e-14
4760.3 1.4497e-14
4762.96 1.5098e-14
4765.62 1.4807e-14
4768.28 1.4458e-14
4770.94 1.4762e-14
4773.6 1.4803e-14
4776.26 1.43e-14
4778.92 1.418e-14
4781.58 1.4331e-14
4784.24 1.4191e-14
4786.9 1.4314e-14
4789.56 1.4368e-14
4792.22 1.4398e-14
4794.88 1.3775e-14
4797.54 1.4563e-14
4800.2 1.4161e-14
4802.86 1.4337e-14
4805.52 1.4003e-14
4808.18 1.4711e-14
4810.84 1.4691e-14
4813.51 1.4792e-14
4816.17 1.4624e-14
4818.83 1.4659e-14
4821.49 1.3848e-14
4824.15 1.423e-14
4826.81 1.4323e-14
4829.47 1.3926e-14
4832.13 1.3935e-14
4834.79 1.3797e-14
4837.45 1.4091e-14
4840.11 1.3927e-14
4842.77 1.3837e-14
4845.43 1.3856e-14
4848.09 1.3955e-14
4850.75 1.4588e-14
4853.41 1.6698e-14
4856.07 1.8314e-14
4858.73 1.8017e-14
4861.39 1.5472e-14
4864.05 1.4981e-14
4866.71 1.4605e-14
4869.37 1.4422e-14
4872.03 1.3862e-14
4874.69 1.3621e-14
4877.35 1.3986e-14
4880.01 1.4167e-14
4882.67 1.3607e-14
4885.33 1.4225e-14
4887.99 1.4295e-14
4890.66 1.3998e-14
4893.32 1.3959e-14
4895.98 1.4053e-14
4898.64 1.4409e-14
4901.3 1.4637e-14
4903.96 1.4617e-14
4906.62 1.422e-14
4909.28 1.3941e-14
4911.94 1.3174e-14
4914.6 1.4028e-14
4917.26 1.3799e-14
4919.92 1.4026e-14
4922.58 1.4013e-14
4925.24 1.3672e-14
4927.9 1.4135e-14
4930.56 1.4454e-14
4933.22 1.4011e-14
4935.88 1.3759e-14
4938.54 1.4353e-14
4941.2 1.4663e-14
4943.86 1.4875e-14
4946.52 1.5224e-14
4949.18 1.5353e-14
4951.84 1.5974e-14
4954.5 1.6036e-14
4957.16 1.6419e-14
4959.82 1.5904e-14
4962.48 1.5125e-14
4965.14 1.4866e-14
4967.81 1.4528e-14
4970.47 1.3721e-14
4973.13 1.3969e-14
4975.79 1.3925e-14
4978.45 1.3612e-14
4981.11 1.3877e-14
4983.77 1.4179e-14
4986.43 1.3996e-14
4989.09 1.4487e-14
4991.75 1.4766e-14
4994.41 1.5046e-14
4997.07 1.6418e-14
4999.73 1.8151e-14
5002.39 1.876e-14
5005.05 1.9232e-14
5007.71 1.822e-14
5010.37 1.7028e-14
5013.03 1.5757e-14
5015.69 1.4847e-14
5018.35 1.4605e-14
5021.01 1.4198e-14
5023.67 1.4105e-14
5026.33 1.3929e-14
5028.99 1.3785e-14
5031.65 1.3576e-14
5034.31 1.3418e-14
5036.97 1.3278e-14
5039.63 1.3778e-14
5042.29 1.4134e-14
5044.96 1.3777e-14
5047.62 1.3855e-14
5050.28 1.4033e-14
5052.94 1.4733e-14
5055.6 1.4195e-14
5058.26 1.3776e-14
5060.92 1.3884e-14
5063.58 1.4169e-14
5066.24 1.4028e-14
5068.9 1.3774e-14
5071.56 1.3991e-14
5074.22 1.3964e-14
5076.88 1.376e-14
5079.54 1.3647e-14
5082.2 1.3875e-14
5084.86 1.4174e-14
5087.52 1.4528e-14
5090.18 1.4082e-14
5092.84 1.385e-14
5095.5 1.3973e-14
5098.16 1.382e-14
5100.82 1.3758e-14
5103.48 1.3769e-14
5106.14 1.3597e-14
5108.8 1.3677e-14
5111.46 1.3324e-14
5114.12 1.3689e-14
5116.78 1.3464e-14
5119.44 1.3956e-14
5122.11 1.3487e-14
5124.77 1.3674e-14
5127.43 1.3567e-14
5130.09 1.3632e-14
5132.75 1.3601e-14
5135.41 1.3534e-14
5138.07 1.3432e-14
5140.73 1.3412e-14
5143.39 1.3488e-14
5146.05 1.3491e-14
5148.71 1.3437e-14
5151.37 1.3569e-14
5154.03 1.3814e-14
5156.69 1.3945e-14
5159.35 1.3486e-14
5162.01 1.3089e-14
5164.67 1.2898e-14
5167.33 1.2241e-14
5169.99 1.2762e-14
5172.65 1.2532e-14
5175.31 1.2647e-14
5177.97 1.2968e-14
5180.63 1.286e-14
5183.29 1.3779e-14
5185.95 1.3305e-14
5188.61 1.3665e-14
5191.27 1.4074e-14
5193.93 1.4266e-14
5196.59 1.359e-14
5199.26 1.4145e-14
5201.92 1.3846e-14
5204.58 1.3801e-14
5207.24 1.3555e-14
5209.9 1.3603e-14
5212.56 1.345e-14
5215.22 1.368e-14
5217.88 1.3338e-14
5220.54 1.3265e-14
5223.2 1.3535e-14
5225.86 1.3572e-14
5228.52 1.3581e-14
5231.18 1.3451e-14
5233.84 1.4187e-14
5236.5 1.3684e-14
5239.16 1.4065e-14
5241.82 1.3554e-14
5244.48 1.4033e-14
5247.14 1.3722e-14
5249.8 1.3928e-14
5252.46 1.3694e-14
5255.12 1.3461e-14
5257.78 1.2987e-14
5260.44 1.3203e-14
5263.1 1.3032e-14
5265.76 1.298e-14
5268.42 1.2663e-14
5271.08 1.2865e-14
5273.75 1.3253e-14
5276.41 1.3125e-14
5279.07 1.4182e-14
5281.73 1.441e-14
5284.39 1.4008e-14
5287.05 1.4354e-14
5289.71 1.427e-14
5292.37 1.4534e-14
5295.03 1.4122e-14
5297.69 1.4633e-14
5300.35 1.3917e-14
5303.01 1.4722e-14
5305.67 1.4753e-14
5308.33 1.4889e-14
5310.99 1.489e-14
5313.65 1.4406e-14
5316.31 1.4508e-14
5318.97 1.4565e-14
5321.63 1.4583e-14
5324.29 1.3926e-14
5326.95 1.3694e-14
5329.61 1.3898e-14
5332.27 1.3676e-14
5334.93 1.3598e-14
5337.59 1.4233e-14
5340.25 1.4139e-14
5342.91 1.4227e-14
5345.57 1.464e-14
5348.23 1.4565e-14
5350.9 1.4393e-14
5353.56 1.4153e-14
5356.22 1.4317e-14
5358.88 1.4787e-14
5361.54 1.446e-14
5364.2 1.4367e-14
5366.86 1.3587e-14
5369.52 1.4072e-14
5372.18 1.4019e-14
5374.84 1.4363e-14
5377.5 1.4064e-14
5380.16 1.4254e-14
5382.82 1.4206e-14
5385.48 1.3917e-14
5388.14 1.4327e-14
5390.8 1.3262e-14
5393.46 1.2902e-14
5396.12 1.3486e-14
5398.78 1.3672e-14
5401.44 1.3761e-14
5404.1 1.387e-14
5406.76 1.3198e-14
5409.42 1.41e-14
5412.08 1.3737e-14
5414.74 1.415e-14
5417.4 1.4431e-14
5420.06 1.4614e-14
5422.72 1.4174e-14
5425.38 1.4296e-14
5428.05 1.4212e-14
5430.71 1.472e-14
5433.37 1.4617e-14
5436.03 1.4123e-14
5438.69 1.4151e-14
5441.35 1.4552e-14
5444.01 1.428e-14
5446.67 1.3641e-14
5449.33 1.4093e-14
5451.99 1.4076e-14
5454.65 1.4337e-14
5457.31 1.4196e-14
5459.97 1.4662e-14
5462.63 1.4331e-14
5465.29 1.4165e-14
5467.95 1.4145e-14
5470.61 1.405e-14
5473.27 1.3612e-14
5475.93 1.3943e-14
5478.59 1.4054e-14
5481.25 1.4395e-14
5483.91 1.4228e-14
5486.57 1.4283e-14
5489.23 1.3994e-14
5491.89 1.4444e-14
5494.55 1.4102e-14
5497.21 1.47e-14
5499.87 1.413e-14
5502.53 1.4473e-14
5505.2 1.4293e-14
5507.86 1.4104e-14
5510.52 1.4086e-14
5513.18 1.4303e-14
5515.84 1.421e-14
5518.5 1.446e-14
5521.16 1.444e-14
5523.82 1.4144e-14
5526.48 1.4168e-14
5529.14 1.4189e-14
5531.8 1.3856e-14
5534.46 1.3673e-14
5537.12 1.413e-14
5539.78 1.4796e-14
5542.44 1.4861e-14
5545.1 1.4657e-14
5547.76 1.4593e-14
5550.42 1.392e-14
5553.08 1.4745e-14
5555.74 1.4528e-14
5558.4 1.4861e-14
5561.06 1.4549e-14
5563.72 1.3927e-14
5566.38 1.4075e-14
5569.04 1.3867e-14
5571.7 1.3886e-14
5574.36 1.4207e-14
5577.02 1.4543e-14
5579.68 1.4479e-14
5582.35 1.3946e-14
5585.01 1.3976e-14
5587.67 1.411e-14
5590.33 1.3715e-14
5592.99 1.3814e-14
5595.65 1.3105e-14
5598.31 1.3991e-14
5600.97 1.4748e-14
5603.63 1.4445e-14
5606.29 1.4243e-14
5608.95 1.3884e-14
5611.61 1.4282e-14
5614.27 1.4337e-14
5616.93 1.3927e-14
5619.59 1.415e-14
5622.25 1.4253e-14
5624.91 1.4288e-14
5627.57 1.4479e-14
5630.23 1.4115e-14
5632.89 1.4321e-14
5635.55 1.4025e-14
5638.21 1.4164e-14
5640.87 1.4254e-14
5643.53 1.3906e-14
5646.19 1.3679e-14
5648.85 1.3888e-14
5651.51 1.3709e-14
5654.17 1.4073e-14
5656.83 1.3928e-14
5659.5 1.3561e-14
5662.16 1.3889e-14
5664.82 1.4096e-14
5667.48 1.4299e-14
5670.14 1.3959e-14
5672.8 1.4235e-14
5675.46 1.3852e-14
5678.12 1.3839e-14
5680.78 1.317e-14
5683.44 1.3446e-14
5686.1 1.3255e-14
5688.76 1.3906e-14
5691.42 1.3958e-14
5694.08 1.3782e-14
5696.74 1.343e-14
5699.4 1.3762e-14
5702.06 1.3606e-14
5704.72 1.3307e-14
5707.38 1.4236e-14
5710.04 1.3442e-14
5712.7 1.4049e-14
5715.36 1.3671e-14
5718.02 1.4277e-14
5720.68 1.4207e-14
5723.34 1.3992e-14
5726.0 1.3859e-14
5728.66 1.4229e-14
5731.32 1.4609e-14
5733.98 1.4023e-14
5736.65 1.3716e-14
5739.31 1.3844e-14
5741.97 1.4169e-14
5744.63 1.4314e-14
5747.29 1.4291e-14
5749.95 1.4356e-14
5752.61 1.4058e-14
5755.27 1.3994e-14
5757.93 1.4665e-14
5760.59 1.4292e-14
5763.25 1.4255e-14
5765.91 1.376e-14
5768.57 1.4133e-14
5771.23 1.3695e-14
5773.89 1.3395e-14
5776.55 1.352e-14
5779.21 1.2949e-14
5781.87 1.3092e-14
5784.53 1.3289e-14
5787.19 1.3119e-14
5789.85 1.3132e-14
5792.51 1.3979e-14
5795.17 1.338e-14
5797.83 1.3465e-14
5800.49 1.4143e-14
5803.15 1.4067e-14
5805.81 1.4145e-14
5808.47 1.432e-14
5811.13 1.3688e-14
5813.8 1.4527e-14
5816.46 1.4178e-14
5819.12 1.4014e-14
5821.78 1.3885e-14
5824.44 1.4187e-14
5827.1 1.4022e-14
5829.76 1.4597e-14
5832.42 1.4706e-14
5835.08 1.3874e-14
5837.74 1.3767e-14
5840.4 1.5187e-14
5843.06 1.411e-14
5845.72 1.368e-14
5848.38 1.4202e-14
5851.04 1.418e-14
5853.7 1.354e-14
5856.36 1.3739e-14
5859.02 1.3973e-14
5861.68 1.411e-14
5864.34 1.3995e-14
5867.0 1.3877e-14
5869.66 1.4562e-14
5872.32 1.4378e-14
5874.98 1.4538e-14
5877.64 1.4428e-14
5880.3 1.4103e-14
5882.96 1.3527e-14
5885.62 1.3332e-14
5888.29 1.2697e-14
5890.95 1.1794e-14
5893.61 1.203e-14
5896.27 1.2529e-14
5898.93 1.3056e-14
5901.59 1.2748e-14
5904.25 1.3221e-14
5906.91 1.4141e-14
5909.57 1.3073e-14
5912.23 1.3976e-14
5914.89 1.4435e-14
5917.55 1.3177e-14
5920.21 1.3416e-14
5922.87 1.4178e-14
5925.53 1.3621e-14
5928.19 1.3664e-14
5930.85 1.3549e-14
5933.51 1.3722e-14
5936.17 1.4007e-14
5938.83 1.3737e-14
5941.49 1.3245e-14
5944.15 1.3337e-14
5946.81 1.3663e-14
5949.47 1.4442e-14
5952.13 1.3883e-14
5954.79 1.3696e-14
5957.45 1.433e-14
5960.11 1.3641e-14
5962.77 1.395e-14
5965.44 1.3708e-14
5968.1 1.353e-14
5970.76 1.3859e-14
5973.42 1.411e-14
5976.08 1.3642e-14
5978.74 1.343e-14
5981.4 1.3964e-14
5984.06 1.4216e-14
5986.72 1.3968e-14
5989.38 1.3457e-14
5992.04 1.3652e-14
5994.7 1.3418e-14
5997.36 1.3896e-14
6000.02 1.3554e-14
6002.68 1.3804e-14
6005.34 1.3825e-14
6008.0 1.3191e-14
6010.66 1.3618e-14
6013.32 1.3766e-14
6015.98 1.3892e-14
6018.64 1.3157e-14
6021.3 1.3119e-14
6023.96 1.3681e-14
6026.62 1.4007e-14
6029.28 1.4748e-14
6031.94 1.4669e-14
6034.6 1.3833e-14
6037.26 1.3462e-14
6039.92 1.4121e-14
6042.59 1.4248e-14
6045.25 1.3972e-14
6047.91 1.4239e-14
6050.57 1.4448e-14
6053.23 1.4339e-14
6055.89 1.4284e-14
6058.55 1.3822e-14
6061.21 1.36e-14
6063.87 1.3794e-14
6066.53 1.3776e-14
6069.19 1.3701e-14
6071.85 1.3846e-14
6074.51 1.4028e-14
6077.17 1.354e-14
6079.83 1.3415e-14
6082.49 1.3563e-14
6085.15 1.3653e-14
6087.81 1.3818e-14
6090.47 1.4228e-14
6093.13 1.3868e-14
6095.79 1.3723e-14
6098.45 1.3215e-14
6101.11 1.4006e-14
6103.77 1.4268e-14
6106.43 1.3775e-14
6109.09 1.3917e-14
6111.75 1.4078e-14
6114.41 1.3543e-14
6117.07 1.3769e-14
6119.74 1.4049e-14
6122.4 1.3147e-14
6125.06 1.3214e-14
6127.72 1.2959e-14
6130.38 1.3317e-14
6133.04 1.3742e-14
6135.7 1.3067e-14
6138.36 1.3433e-14
6141.02 1.3514e-14
6143.68 1.4035e-14
6146.34 1.376e-14
6149.0 1.3542e-14
6151.66 1.3066e-14
6154.32 1.3237e-14
6156.98 1.2799e-14
6159.64 1.2494e-14
6162.3 1.311e-14
6164.96 1.3658e-14
6167.62 1.3225e-14
6170.28 1.3308e-14
6172.94 1.3065e-14
6175.6 1.3185e-14
6178.26 1.3863e-14
6180.92 1.3655e-14
6183.58 1.3936e-14
6186.24 1.3023e-14
6188.9 1.3023e-14
6191.56 1.3043e-14
6194.22 1.3324e-14
6196.89 1.333e-14
6199.55 1.3778e-14
6202.21 1.355e-14
6204.87 1.3942e-14
6207.53 1.4052e-14
6210.19 1.3221e-14
6212.85 1.2987e-14
6215.51 1.322e-14
6218.17 1.3321e-14
6220.83 1.3329e-14
6223.49 1.3254e-14
6226.15 1.3295e-14
6228.81 1.3112e-14
6231.47 1.3478e-14
6234.13 1.3417e-14
6236.79 1.3002e-14
6239.45 1.2688e-14
6242.11 1.2924e-14
6244.77 1.2804e-14
6247.43 1.2528e-14
6250.09 1.303e-14
6252.75 1.2869e-14
6255.41 1.3213e-14
6258.07 1.2471e-14
6260.73 1.2188e-14
6263.39 1.2947e-14
6266.05 1.3928e-14
6268.71 1.3408e-14
6271.37 1.3309e-14
6274.04 1.3199e-14
6276.7 1.2867e-14
6279.36 1.2683e-14
6282.02 1.3038e-14
6284.68 1.4187e-14
6287.34 1.4209e-14
6290.0 1.3951e-14
6292.66 1.3511e-14
6295.32 1.4407e-14
6297.98 1.4079e-14
6300.64 1.4996e-14
6303.3 1.3875e-14
6305.96 1.4291e-14
6308.62 1.3433e-14
6311.28 1.3395e-14
6313.94 1.3172e-14
6316.6 1.4073e-14
6319.26 1.3734e-14
6321.92 1.3674e-14
6324.58 1.3252e-14
6327.24 1.3982e-14
6329.9 1.2517e-14
6332.56 1.2977e-14
6335.22 1.3277e-14
6337.88 1.3236e-14
6340.54 1.3283e-14
6343.2 1.2878e-14
6345.86 1.2885e-14
6348.52 1.2785e-14
6351.19 1.286e-14
6353.85 1.3604e-14
6356.51 1.3594e-14
6359.17 1.2869e-14
6361.83 1.3219e-14
6364.49 1.3099e-14
6367.15 1.2862e-14
6369.81 1.365e-14
6372.47 1.3606e-14
6375.13 1.3528e-14
6377.79 1.3016e-14
6380.45 1.353e-14
6383.11 1.3262e-14
6385.77 1.3958e-14
6388.43 1.3881e-14
6391.09 1.3302e-14
6393.75 1.2821e-14
6396.41 1.318e-14
6399.07 1.3728e-14
6401.73 1.4206e-14
6404.39 1.437e-14
6407.05 1.3662e-14
6409.71 1.3637e-14
6412.37 1.3606e-14
6415.03 1.3389e-14
6417.69 1.2963e-14
6420.35 1.3353e-14
6423.01 1.3504e-14
6425.67 1.321e-14
6428.34 1.3391e-14
6431.0 1.346e-14
6433.66 1.3596e-14
6436.32 1.3811e-14
6438.98 1.3675e-14
6441.64 1.3494e-14
6444.3 1.3656e-14
6446.96 1.3096e-14
6449.62 1.3289e-14
6452.28 1.3563e-14
6454.94 1.3098e-14
6457.6 1.3302e-14
6460.26 1.3529e-14
6462.92 1.3232e-14
6465.58 1.3508e-14
6468.24 1.3162e-14
6470.9 1.2927e-14
6473.56 1.2721e-14
6476.22 1.2679e-14
6478.88 1.3313e-14
6481.54 1.3295e-14
6484.2 1.2798e-14
6486.86 1.2645e-14
6489.52 1.3146e-14
6492.18 1.3445e-14
6494.84 1.3658e-14
6497.5 1.3565e-14
6500.16 1.3517e-14
6502.83 1.3402e-14
6505.49 1.3407e-14
6508.15 1.2665e-14
6510.81 1.3609e-14
6513.47 1.4038e-14
6516.13 1.3862e-14
6518.79 1.3236e-14
6521.45 1.3427e-14
6524.11 1.392e-14
6526.77 1.3658e-14
6529.43 1.346e-14
6532.09 1.3152e-14
6534.75 1.3577e-14
6537.41 1.5025e-14
6540.07 1.613e-14
6542.73 1.7432e-14
6545.39 1.721e-14
6548.05 1.7909e-14
6550.71 2.394e-14
6553.37 3.4545e-14
6556.03 4.1402e-14
6558.69 3.723e-14
6561.35 2.8212e-14
6564.01 2.5111e-14
6566.67 2.2891e-14
6569.33 2.1753e-14
6571.99 2.1615e-14
6574.65 2.3824e-14
6577.31 2.4688e-14
6579.98 2.3932e-14
6582.64 2.1425e-14
6585.3 2.0297e-14
6587.96 1.9656e-14
6590.62 1.8213e-14
6593.28 1.5724e-14
6595.94 1.3852e-14
6598.6 1.3337e-14
6601.26 1.414e-14
6603.92 1.3803e-14
6606.58 1.3486e-14
6616.15 1.2988e-14
6631.4 1.314e-14
6646.69 1.3232e-14
6662.01 1.3172e-14
6677.37 1.3234e-14
6692.76 1.3084e-14
6708.19 1.3115e-14
6723.66 1.244e-14
6739.15 1.2967e-14
6754.69 1.2703e-14
6770.26 1.3029e-14
6785.87 1.3212e-14
6801.51 1.2735e-14
6817.19 1.2913e-14
6832.91 1.3034e-14
6848.66 1.2448e-14
6864.45 1.2507e-14
6880.27 1.2624e-14
6896.13 1.2771e-14
6912.03 1.2772e-14
6927.96 1.2656e-14
6943.93 1.3012e-14
6959.94 1.2864e-14
6975.98 1.3317e-14
6992.06 1.3288e-14
7008.18 1.2927e-14
7024.34 1.2634e-14
7040.53 1.317e-14
7056.76 1.3697e-14
7073.03 1.2493e-14
7089.34 1.2755e-14
7105.68 1.2409e-14
7122.06 1.2325e-14
7138.48 1.1717e-14
7154.93 1.1854e-14
7171.42 1.1746e-14
7187.96 1.1801e-14
7204.53 1.1994e-14
7221.13 1.2388e-14
7237.78 1.2591e-14
7254.47 1.2796e-14
7271.19 1.242e-14
7287.95 1.2479e-14
7304.75 1.2978e-14
7321.59 1.2979e-14
7338.47 1.2921e-14
7355.39 1.3193e-14
7372.34 1.2864e-14
7389.34 1.3256e-14
7406.37 1.3227e-14
7423.44 1.2779e-14
7440.56 1.3199e-14
7457.71 1.3322e-14
7474.9 1.3447e-14
7492.13 1.3325e-14
7509.41 1.348e-14
7526.72 1.3606e-14
7544.07 1.3639e-14
7561.45 1.3453e-14
7578.89 1.3148e-14
7596.36 1.2999e-14
7613.87 1.2822e-14
7631.42 1.2912e-14
7649.01 1.2913e-14
7666.65 1.2276e-14
7684.32 1.2535e-14
7702.04 1.2335e-14
7719.79 1.228e-14
7737.59 1.2452e-14
7755.42 1.1838e-14
7773.3 1.2397e-14
7791.22 1.2398e-14
7809.18 1.2343e-14
7827.18 1.269e-14
7845.22 1.2402e-14
7863.31 1.2547e-14
7881.44 1.2433e-14
7899.61 1.2607e-14
7917.82 1.2153e-14
7936.07 1.2238e-14
7954.36 1.1851e-14
7972.7 1.2269e-14
7991.08 1.2556e-14
8009.5 1.2299e-14
8027.96 1.2762e-14
8046.47 1.3001e-14
8065.02 1.2943e-14
8083.61 1.2533e-14
8102.25 1.2053e-14
8120.93 1.274e-14
8139.64 1.2624e-14
8158.41 1.2423e-14
8177.22 1.2511e-14
8196.07 1.1894e-14
8214.96 1.2717e-14
8233.9 1.24e-14
8252.88 1.2749e-14
8271.9 1.2987e-14
8290.97 1.2404e-14
8310.09 1.2462e-14
8329.24 1.2124e-14
8348.45 1.2097e-14
8367.69 1.2524e-14
8386.98 1.21e-14
8406.31 1.2213e-14
8425.69 1.2499e-14
8445.11 1.1453e-14
8464.58 1.2077e-14
8484.1 1.236e-14
8503.65 1.1942e-14
8523.25 1.1511e-14
8542.9 1.1862e-14
8562.6 1.2112e-14
8582.33 1.2169e-14
8602.12 1.1921e-14
8621.95 1.1813e-14
8641.83 1.2145e-14
8661.74 1.1761e-14
8681.72 1.1442e-14
8701.73 1.1682e-14
8721.79 1.1846e-14
8741.9 1.2179e-14
8762.05 1.1394e-14
8782.24 1.1769e-14
8802.49 1.1989e-14
8822.78 1.2326e-14
8843.12 1.2242e-14
8863.5 1.2048e-14
8883.94 1.1375e-14
8904.42 1.1831e-14
8924.94 1.1942e-14
8945.52 1.2137e-14
8966.14 1.1646e-14
8986.81 1.162e-14
9007.53 1.1462e-14
9028.29 1.0624e-14
9049.1 1.2455e-14
9069.96 1.1924e-14
9090.87 1.1258e-14
9111.83 1.1871e-14
9132.83 1.229e-14
9153.89 1.1657e-14
9174.99 1.174e-14
9196.14 1.1687e-14
9217.34 1.1475e-14
9238.59 1.096e-14
9259.88 1.1584e-14
9281.23 1.1965e-14
9302.63 1.1507e-14
9324.07 1.2051e-14
9345.56 1.2052e-14
9367.11 1.1861e-14
9388.7 1.2027e-14
9410.34 1.1782e-14
9432.04 1.2197e-14
9453.78 1.2031e-14
9475.57 1.237e-14
9497.42 1.2371e-14
9519.31 1.198e-14
9541.25 1.1548e-14
9563.25 1.2038e-14
9585.3 1.232e-14
9607.39 1.2153e-14
9629.54 1.2238e-14
9651.74 1.21e-14
9673.99 1.2073e-14
9696.29 1.2243e-14
9718.64 1.2021e-14
9741.04 1.1857e-14
9763.5 1.1914e-14
9786.01 1.1806e-14
9808.57 1.2082e-14
9831.18 1.1973e-14
9853.84 1.2057e-14
9876.55 1.1976e-14
9899.33 1.1977e-14
9922.15 1.2062e-14
9945.02 1.2119e-14
9967.94 1.2149e-14
9990.92 1.2122e-14
10013.95 1.2208e-14
10083.37 1.2017e-14
10129.91 1.2529e-14
10176.66 1.2503e-14
10223.64 1.2739e-14
10270.83 1.2919e-14
10294.5 1.2951e-14
10510.06 1.2457e-14
10705.47 1.1788e-14
10904.49 1.1626e-14
11107.22 1.0775e-14
11287.7 1.0976e-14
11497.55 1.1205e-14
11711.32 1.1026e-14
11901.61 1.0219e-14
12094.99 1.0409e-14
12291.52 1.0385e-14
12491.24 9.9868e-15
12694.21 9.8045e-15
12900.47 9.6923e-15
13110.08 9.6034e-15
13292.46 9.2348e-15
13508.45 8.9625e-15
13696.37 8.8192e-15
13886.91 8.3643e-15
14112.55 7.824e-15
14308.88 7.7701e-15
14507.94 7.9146e-15
14709.76 7.5758e-15
14914.4 7.824e-15
15087.08 7.9878e-15
15296.97 8.2495e-15
15509.77 8.1927e-15
15689.37 7.9878e-15
15907.63 7.6283e-15
16091.84 7.5932e-15
16315.7 7.6107e-15
16504.61 7.5932e-15
16695.73 7.6989e-15
16889.07 7.7522e-15
17084.63 7.7522e-15
17282.45 7.5063e-15
17482.58 7.2515e-15
17685.02 6.8774e-15
17889.81 6.5077e-15
18096.95 6.1154e-15
18306.5 5.9488e-15
18518.49 5.7204e-15
18689.83 5.4004e-15
18906.25 5.3018e-15
19081.19 5.2897e-15
19302.15 5.1812e-15
19480.74 5.0053e-15
19706.32 4.8131e-15
19888.67 4.6604e-15
20118.95 4.6177e-15
20305.12 4.5022e-15
20493.01 4.5126e-15
20682.61 4.4609e-15
20922.11 4.4099e-15
21115.71 4.3896e-15
21311.08 4.3294e-15
21508.28 4.2798e-15
21707.28 4.1632e-15
21908.14 4.1155e-15
22110.86 4.0126e-15
22315.44 3.9311e-15
22521.93 3.8809e-15
22678.03 3.8151e-15
22887.88 3.4509e-15
23099.64 3.4385e-15
23313.39 3.0465e-15
23475.01 2.8667e-15
23692.2 2.923e-15
23911.43 2.7182e-15
24077.17 2.6114e-15
24299.96 2.5546e-15
24524.79 2.3539e-15
24654.64 1.8119e-15
24748.28 1.7939e-15
24841.83 1.7781e-15
24935.47 1.7776e-15
25029.12 1.8216e-15
25122.67 1.8265e-15
25216.31 1.7799e-15
25309.95 1.8132e-15
25403.5 1.778e-15
25497.14 1.8398e-15
25590.69 1.8817e-15
25684.34 1.8369e-15
25777.98 1.7905e-15
25871.53 1.8606e-15
25965.17 1.8123e-15
26058.82 1.8285e-15
26152.37 1.7761e-15
26246.01 1.8826e-15
26339.56 1.8152e-15
26433.2 1.8135e-15
26526.84 1.7927e-15
26620.39 1.8373e-15
26714.04 1.8206e-15
26807.68 1.8394e-15
26901.23 1.7765e-15
26994.87 1.8304e-15
27088.42 1.7589e-15
27182.06 1.6949e-15
27275.71 1.7175e-15
27369.26 1.6905e-15
27462.9 1.6856e-15
27556.55 1.6289e-15
27650.09 1.5961e-15
27743.74 1.5897e-15
27837.28 1.5666e-15
27930.93 1.5705e-15
28024.57 1.5495e-15
28118.12 1.5289e-15
28211.76 1.443e-15
28305.41 1.4541e-15
28398.96 1.4722e-15
28492.6 1.4631e-15
28586.15 1.4237e-15
28679.79 1.4122e-15
28773.43 1.4212e-15
28866.98 1.4084e-15
28960.63 1.3757e-15
29054.27 1.387e-15
29147.82 1.3382e-15
29241.46 1.3774e-15
29335.01 1.2908e-15
29428.65 1.2601e-15
29522.3 1.2465e-15
29615.84 1.2929e-15
29709.49 1.2725e-15
29803.13 1.2594e-15
29896.68 1.2176e-15
29990.33 1.272e-15
30083.87 1.1894e-15
30177.52 1.1603e-15
30271.16 1.1971e-15
30364.71 1.2177e-15
30458.35 1.1966e-15
30552.0 1.1782e-15
30645.55 1.2059e-15
30739.19 1.127e-15
30832.74 1.1455e-15
30926.38 1.2135e-15
31020.03 1.1834e-15
31113.57 1.2127e-15
31207.22 1.1641e-15
31300.86 1.2224e-15
31394.41 1.2009e-15
31488.05 1.2247e-15
31581.6 1.172e-15
31675.25 1.2672e-15
31768.89 1.2458e-15
31862.44 1.3478e-15
31956.08 1.3355e-15
32049.73 1.3949e-15
32143.27 1.3792e-15
32236.92 1.4992e-15
32330.46 1.5204e-15
32424.11 1.5483e-15
32517.75 1.5716e-15
32611.3 1.6573e-15
32704.94 1.588e-15
32798.59 1.6646e-15
32892.13 1.5995e-15
32985.78 1.5377e-15
33079.33 1.4884e-15
33172.97 1.459e-15
33266.61 1.3303e-15
33360.16 1.3449e-15
33453.81 1.2698e-15
33547.45 1.2635e-15
33641.0 1.2243e-15
33734.64 1.2335e-15
33828.19 1.1898e-15
33921.83 1.2789e-15
34015.48 1.189e-15
34109.03 1.1561e-15
34202.67 1.1538e-15
34296.31 1.1341e-15
34389.86 1.0694e-15
34483.5 1.1486e-15
34577.05 1.0846e-15
34670.7 1.1002e-15
34764.34 1.0717e-15
34857.89 1.1066e-15
34951.54 1.0835e-15
35045.18 1.059e-15
35138.72 1.0026e-15
35232.37 9.6867e-16
35325.92 1.0126e-15
35419.56 9.9843e-16
35513.2 9.9027e-16
35606.75 9.8613e-16
35700.4 9.9054e-16
35794.04 1.0313e-15
35887.59 9.5019e-16
35981.23 9.5816e-16
36074.78 9.4242e-16
36168.42 9.1269e-16
36262.07 8.9562e-16
36355.62 9.3997e-16
36449.26 8.9752e-16
36542.91 9.2799e-16
36636.45 9.2869e-16
36730.09 9.3694e-16
36823.64 9.1808e-16
36917.29 9.3555e-16
37010.93 8.7389e-16
37104.48 8.9465e-16
37198.12 8.3835e-16
37291.77 8.7875e-16
37385.31 8.6163e-16
37478.96 8.4063e-16
37572.51 8.8023e-16
37666.15 8.8689e-16
37759.8 8.1658e-16
37853.34 8.5807e-16
37946.99 8.3549e-16
38040.63 8.3567e-16
38134.18 7.9852e-16
38227.82 8.9184e-16
38321.37 8.2639e-16
38415.01 7.8156e-16
38508.66 7.9035e-16
38602.2 7.8573e-16
38695.85 7.7712e-16
38789.49 8.0616e-16
38883.04 7.6846e-16
38976.68 7.8383e-16
39070.24 7.9423e-16
39163.88 7.5862e-16
39257.52 7.7228e-16
39351.07 7.849e-16
39444.72 7.4892e-16
39538.36 7.8771e-16
39631.9 7.347e-16
39725.55 8.0281e-16
39819.1 7.7577e-16
39912.74 7.8321e-16
40006.38 7.5168e-16
40099.93 7.7556e-16
40193.57 7.6013e-16
40287.12 7.8715e-16
40380.77 7.9464e-16
40474.41 7.9031e-16
40567.96 7.0107e-16
40661.6 7.4479e-16
40755.25 6.7752e-16
40848.79 7.0557e-16
40942.44 6.8266e-16
41036.08 6.892e-16
41129.63 6.5799e-16
41223.28 6.6094e-16
41316.82 6.3166e-16
41410.47 6.3771e-16
41504.11 6.3299e-16
41597.66 6.7816e-16
41691.3 6.8347e-16
41784.85 6.5126e-16
41878.5 6.252e-16
41972.14 6.1115e-16
42065.69 6.2575e-16
42159.33 5.9349e-16
42252.98 5.7408e-16
42346.52 5.5492e-16
42440.17 5.3864e-16
42533.81 5.3541e-16
42627.36 5.4393e-16
42721.0 5.4848e-16
42814.55 5.429e-16
42908.19 5.66e-16
43001.84 5.968e-16
43095.38 5.6035e-16
43189.03 5.6173e-16
43282.58 5.7797e-16
43376.22 5.4881e-16
43469.87 5.4122e-16
43563.41 5.195e-16
43657.05 5.028e-16
43750.7 5.3735e-16
43844.25 5.0246e-16
43937.89 5.0678e-16
44031.54 5.0973e-16
44125.09 5.1962e-16
44218.73 4.6589e-16
44312.28 4.3731e-16
44405.92 5.3792e-16
44499.56 5.1967e-16
44593.11 4.8023e-16
44686.76 4.7067e-16
44780.31 4.4961e-16
44873.95 4.6294e-16
44967.59 4.7682e-16
45061.14 4.919e-16
45154.79 4.672e-16
45248.43 4.6768e-16
45341.97 4.9283e-16
45435.62 3.8353e-16
45529.26 4.6437e-16
45622.81 4.5097e-16
45716.45 4.4828e-16
45810.0 4.3378e-16
45903.65 4.247e-16
45997.29 4.3275e-16
46090.84 4.528e-16
46184.48 4.1742e-16
46278.13 4.0978e-16
46371.67 4.2968e-16
46465.32 4.4573e-16
46558.86 4.3246e-16
46652.51 4.2813e-16
46746.15 4.4054e-16
46839.7 4.7167e-16
46933.35 4.4764e-16
47026.99 4.8736e-16
47120.54 4.2204e-16
47214.18 4.3015e-16
47307.73 4.2973e-16
47401.37 4.3336e-16
47495.02 3.8633e-16
47588.57 3.8033e-16
47682.21 4.0454e-16
47775.76 3.9838e-16
47870.37 4.0635e-16
48349.07 4.1331e-16
48832.56 4.2035e-16
49320.89 4.2745e-16
49814.09 4.3462e-16
50312.24 4.4187e-16
50815.36 4.4919e-16
51323.51 4.5658e-16
51618.2 4.6087e-16
51917.94 5.4629e-16
52217.7 6.0673e-16
52517.45 6.3518e-16
52817.2 5.7325e-16
53116.95 5.5154e-16
53416.71 5.4387e-16
53716.45 4.6543e-16
54016.21 4.3417e-16
54315.96 4.1825e-16
54615.72 4.226e-16
54915.47 4.5375e-16
55215.23 4.7869e-16
55514.98 4.6015e-16
55814.72 4.9184e-16
56114.47 6.0183e-16
56414.23 6.7922e-16
56713.99 6.8293e-16
57013.73 7.0964e-16
57313.49 7.2581e-16
57613.24 6.7105e-16
57912.99 6.3247e-16
58212.74 6.2504e-16
58512.5 6.2729e-16
58812.25 6.4298e-16
59112.0 6.5486e-16
59411.76 6.5463e-16
59711.5 7.4315e-16
60011.25 8.9664e-16
60311.01 9.6072e-16
60610.76 9.8506e-16
60910.51 1.0486e-15
61210.26 1.3271e-15
61510.01 1.855e-15
61809.77 2.5189e-15
62109.52 2.8095e-15
62409.26 2.6205e-15
62709.03 2.2133e-15
63008.77 1.8515e-15
63308.52 1.5868e-15
63608.28 1.3628e-15
63908.03 1.2014e-15
64207.78 1.0996e-15
64507.54 9.867e-16
64807.28 9.3668e-16
65107.03 8.9044e-16
65406.79 8.6303e-16
65706.54 8.6319e-16
66006.3 8.8676e-16
66306.05 8.848e-16
66605.8 8.6687e-16
66905.56 8.9952e-16
67205.3 8.7547e-16
67505.06 8.3901e-16
67804.81 8.4621e-16
68104.56 8.5906e-16
68404.31 8.8051e-16
68704.06 9.5432e-16
69003.81 1.0063e-15
69303.57 1.036e-15
69603.31 1.1833e-15
69903.08 1.3028e-15
70202.82 1.1977e-15
70502.57 1.1377e-15
70802.34 1.1034e-15
71102.08 1.0955e-15
71401.83 1.1328e-15
71701.59 1.1359e-15
72001.34 1.1421e-15
72301.09 1.2052e-15
72600.84 1.2779e-15
72880.97 1.34e-15
72900.59 1.3049e-15
73200.35 1.4089e-15
73481.66 1.5965e-15
73500.09 1.4907e-15
74082.36 1.9256e-15
74683.06 2.4076e-15
75283.76 2.8407e-15
75884.45 3.1651e-15
76485.16 3.2224e-15
77085.86 3.0624e-15
77686.55 2.9681e-15
78287.26 2.8161e-15
78887.95 2.5754e-15
79488.65 2.1909e-15
80089.35 1.897e-15
80690.04 1.6332e-15
81290.75 1.4325e-15
81891.45 1.3306e-15
82492.15 1.2771e-15
83092.84 1.3125e-15
83693.55 1.2665e-15
84294.24 1.2707e-15
84894.94 1.3143e-15
85495.64 1.3797e-15
86096.33 1.3444e-15
86697.03 1.2179e-15
87297.73 9.5014e-16
87898.42 7.5485e-16
88499.13 6.0818e-16
89099.83 4.8463e-16
89700.53 4.2085e-16
90301.23 3.638e-16
90901.93 3.3057e-16
91502.62 3.0213e-16
92103.31 2.7656e-16
92704.02 2.6943e-16
93304.72 2.5141e-16
93905.41 2.53e-16
94506.12 2.5289e-16
95106.82 2.3616e-16
95707.52 2.4201e-16
96308.22 2.6199e-16
96908.87 2.664e-16
97509.62 2.2194e-16
98110.28 2.1053e-16
98711.04 2.0867e-16
99311.7 1.9545e-16
99912.44 1.9782e-16
100513.11 1.9996e-16
101113.77 1.9913e-16
101714.52 1.9024e-16
102315.17 1.918e-16
102915.94 1.9165e-16
103516.59 2.001e-16
104117.25 2.1698e-16
104718.0 2.4791e-16
105318.67 2.8212e-16
105919.41 2.9701e-16
106520.07 2.9181e-16
107120.83 2.9105e-16
107721.49 2.9276e-16
108322.15 2.9852e-16
108922.9 3.3024e-16
109523.56 3.9725e-16
110124.31 4.9115e-16
110724.97 5.5875e-16
111325.72 8.2874e-16
111926.38 1.2728e-15
112527.03 1.4685e-15
113127.8 1.2757e-15
113728.45 1.0182e-15
114329.2 8.1875e-16
114929.86 6.8384e-16
115530.62 6.0779e-16
116131.27 5.437e-16
116731.93 5.0492e-16
117332.69 4.9271e-16
117933.35 4.8546e-16
118534.1 5.1121e-16
119134.75 5.4944e-16
119735.42 5.685e-16
120336.17 5.5718e-16
120936.83 5.4321e-16
121537.58 5.3234e-16
122138.25 5.4608e-16
122738.99 5.9098e-16
123339.66 6.1639e-16
123940.31 6.2054e-16
124541.07 6.59e-16
125141.72 7.039e-16
125742.48 7.5777e-16
126343.13 7.9904e-16
126943.79 8.3758e-16
127544.55 1.0102e-15
128145.21 1.1665e-15
128745.96 8.4629e-16
129346.61 5.2622e-16
129947.37 4.5015e-16
130548.03 4.2598e-16
131148.7 4.214e-16
131749.45 4.1235e-16
132350.1 4.0834e-16
132950.85 4.0539e-16
133551.52 3.9219e-16
134152.27 3.8809e-16
134752.92 3.919e-16
135353.58 3.9002e-16
135954.34 3.8362e-16
136555.0 3.6937e-16
137155.74 3.4589e-16
137756.41 3.291e-16
138357.16 3.1936e-16
138957.82 3.1164e-16
139558.47 3.0634e-16
140159.24 3.0295e-16
140676.12 3.1366e-16
141563.12 3.2629e-16
142450.22 3.3888e-16
143337.24 3.281e-16
144224.24 2.9926e-16
145111.25 2.7008e-16
145998.36 2.5381e-16
146885.37 2.3407e-16
147772.37 2.4441e-16
148659.47 2.625e-16
149546.49 2.3197e-16
150433.49 2.2714e-16
151320.5 2.1925e-16
152207.6 2.1756e-16
153094.62 2.2098e-16
153981.62 2.2324e-16
154868.72 2.8334e-16
155755.73 3.3666e-16
156642.73 2.6242e-16
157529.84 2.1927e-16
158416.85 2.2624e-16
159303.85 2.2741e-16
160190.86 2.1717e-16
161077.98 2.2491e-16
161964.97 2.5758e-16
162851.98 2.6459e-16
163739.0 3.4084e-16
164626.1 3.6501e-16
165513.11 3.632e-16
166400.13 3.0912e-16
167287.23 3.1509e-16
168174.23 3.1007e-16
169061.25 3.0934e-16
169948.35 4.0271e-16
170835.35 4.1732e-16
171722.36 3.2303e-16
172609.36 3.1704e-16
173496.47 3.2355e-16
174383.48 2.9926e-16
175270.48 2.439e-16
176157.58 2.2809e-16
177044.6 2.3236e-16
177931.6 2.2066e-16
178818.7 2.1611e-16
179705.71 2.0155e-16
180592.73 1.9254e-16
181479.73 1.815e-16
182366.83 1.8792e-16
183253.85 1.8008e-16
184140.84 2.0271e-16
185027.96 1.794e-16
185914.98 2.0025e-16
186801.96 3.0038e-16
187688.98 3.9502e-16
188576.09 2.3454e-16
189463.09 2.6255e-16
190350.11 1.7997e-16
191237.21 1.8635e-16
192124.21 1.9061e-16
193011.22 1.8037e-16
193898.24 1.9222e-16
194785.34 1.8862e-16
195672.34 2.2145e-16
196559.36 1.808e-16
197446.46 1.8537e-16
198851.12 1.6411e-16
200548.89 2.0919e-16
202247.64 1.9508e-16
203947.38 1.7622e-16
205647.96 1.9752e-16
207349.42 1.9586e-16
209051.84 1.8478e-16
210755.16 1.9445e-16
212459.41 2.073e-16
214164.65 1.978e-16
215870.75 1.8566e-16
217577.83 2.017e-16
219285.77 2.069e-16
220994.67 2.0186e-16
222704.54 1.9185e-16
224415.3 2.0121e-16
226127.02 2.1046e-16
227839.71 2.1146e-16
229553.26 2.0268e-16
231267.88 2.0429e-16
232983.28 2.1528e-16
234699.71 2.2423e-16
236417.15 2.237e-16
238135.44 2.257e-16
239854.69 2.2746e-16
241574.93 2.3053e-16
243296.02 2.414e-16
245018.18 2.3507e-16
246741.23 2.289e-16
248465.33 2.3734e-16
250190.28 2.4751e-16
251916.24 2.4907e-16
253643.13 2.5764e-16
255371.0 2.5167e-16
257099.83 2.7042e-16
258829.66 3.1306e-16
260560.43 2.8562e-16
262292.16 2.636e-16
264024.86 2.6059e-16
265758.53 2.5871e-16
267493.29 2.5911e-16
269228.89 2.6053e-16
270965.46 2.6368e-16
272703.09 2.6897e-16
274441.72 2.6468e-16
276181.19 2.716e-16
277921.73 2.7019e-16
279663.25 2.772e-16
281405.84 2.9204e-16
283149.37 2.9311e-16
284893.8 3.0108e-16
286639.35 2.8736e-16
288385.8 3.1096e-16
290133.29 2.8842e-16
291881.77 2.8453e-16
293631.22 3.0088e-16
295381.73 2.9661e-16
297133.2 3.0119e-16
298885.65 2.9869e-16
300639.15 3.0887e-16
302393.74 3.0528e-16
304149.26 3.0176e-16
305905.79 3.1463e-16
307663.25 3.2865e-16
309421.89 3.5923e-16
311181.41 3.1949e-16
312942.04 3.2802e-16
314703.58 3.692e-16
316466.27 3.3286e-16
318229.96 3.221e-16
319994.56 3.2239e-16
321760.27 3.3719e-16
323527.04 3.8155e-16
325294.84 3.6042e-16
327063.67 3.3627e-16
328833.5 3.7735e-16
330604.32 3.7313e-16
332376.23 3.8309e-16
334149.29 4.889e-16
335923.2 4.4622e-16
337698.29 3.7367e-16
