# col1 col2
# An Atlas of Galaxy Spectral Energy Distributions from the Ultraviolet to the Mid-Infrared
# Brown et al. (2014)
# http://dx.doi.org/10.5072/03/529D3551F0117
# 
# Column 1 : Restframe Wavelength (Angstrom)
# Column 2 : Flux per unit wavelength (ergs/s/cm^2/Angstrom)
# Column 3 : Observed wavelength (Angstrom)
# Column 4 : Source (0 = model, 1 = Optical Spectrum, 2 = Akari, 3 = Spitzer IRS)
# 
102.07 6.1253e-17
103.97 6.6855e-17
105.9 7.3474e-17
108.12 8.0008e-17
109.88 8.9152e-17
114.0 1.0426e-16
118.01 1.1943e-16
121.04 1.4293e-16
125.0 1.6223e-16
127.03 1.7264e-16
127.91 1.7788e-16
130.89 1.9237e-16
132.1 1.9913e-16
133.94 2.0755e-16
137.06 2.2758e-16
139.93 2.4329e-16
142.86 2.7678e-16
146.86 3.1778e-16
150.98 3.2744e-16
154.85 3.7079e-16
158.82 3.9823e-16
162.15 4.1989e-16
165.93 4.4888e-16
170.18 4.7657e-16
172.95 4.7657e-16
176.98 5.2739e-16
179.85 5.4844e-16
181.93 5.6381e-16
186.17 5.9174e-16
190.95 6.268e-16
194.05 6.5033e-16
198.11 6.7785e-16
201.8 7.0653e-16
205.08 7.28e-16
209.85 7.5012e-16
216.23 8.0562e-16
220.25 8.3393e-16
222.8 8.5139e-16
226.94 8.8335e-16
230.1 1.1753e-15
233.84 2.383e-15
239.84 5.6511e-15
245.99 5.7561e-15
251.72 6.6701e-15
256.99 3.725e-15
259.96 7.0653e-15
264.19 9.5089e-15
269.1 1.0026e-14
274.1 1.0283e-14
279.2 9.7753e-15
283.74 1.0893e-14
289.68 1.0843e-14
295.74 1.0166e-14
301.24 6.8097e-15
308.26 8.9152e-15
318.36 1.242e-14
328.03 1.2976e-14
338.0 1.3006e-14
348.27 1.2946e-14
357.2 1.4326e-14
366.36 1.6563e-14
374.9 1.6487e-14
385.4 1.521e-14
395.29 1.7343e-14
405.43 1.8626e-14
413.92 1.8584e-14
421.61 1.7953e-14
430.44 1.7423e-14
441.48 1.8498e-14
450.73 1.8584e-14
460.16 1.7625e-14
469.8 1.7585e-14
479.64 1.8244e-14
489.68 1.6988e-14
499.93 1.8244e-14
505.72 1.8036e-14
511.58 2.4498e-14
519.89 2.3558e-14
529.56 2.2394e-14
539.4 2.0283e-14
549.43 1.9959e-14
559.65 2.2863e-14
570.05 2.3558e-14
580.65 2.2758e-14
590.08 2.2968e-14
599.67 2.0996e-14
609.42 1.9415e-14
619.32 2.3074e-14
629.38 2.2189e-14
639.61 2.2863e-14
650.0 2.2189e-14
657.53 2.1141e-14
665.14 2.2189e-14
674.39 2.2549e-14
685.35 2.0613e-14
694.89 2.1985e-14
704.55 1.9594e-14
716.0 2.1935e-14
725.96 2.1734e-14
734.37 2.1684e-14
744.58 2.1044e-14
754.94 2.0708e-14
765.44 1.8929e-14
774.31 2.0283e-14
785.08 1.9459e-14
794.17 1.9776e-14
805.22 1.973e-14
814.54 1.9594e-14
825.87 1.9549e-14
835.44 1.6948e-14
845.11 1.8973e-14
854.9 1.8584e-14
864.8 1.8712e-14
874.81 1.8541e-14
884.94 1.8371e-14
895.19 1.8202e-14
905.55 1.7788e-14
916.04 1.7463e-14
924.51 3.5574e-14
935.22 5.1538e-14
946.05 6.5786e-14
954.8 7.1143e-14
965.86 7.747e-14
974.8 4.2868e-14
986.08 6.7785e-14
995.21 6.2392e-14
1004.42 6.8097e-14
1016.05 6.8254e-14
1025.45 4.9219e-14
1034.94 6.3846e-14
1044.51 7.2299e-14
1054.18 6.9684e-14
1063.93 6.326e-14
1073.78 6.5033e-14
1086.21 5.796e-14
1096.26 6.3993e-14
1103.86 6.1254e-14
1114.07 6.0135e-14
1124.38 5.4971e-14
1134.78 5.8632e-14
1145.28 5.6122e-14
1155.88 5.4971e-14
1163.89 5.3596e-14
1174.66 4.2085e-14
1185.53 5.0134e-14
1193.75 4.7657e-14
1204.8 4.4272e-14
1215.94 3.3199e-14
1224.37 4.4069e-14
1235.7 4.6573e-14
1244.27 4.6252e-14
1255.78 4.5408e-14
1264.48 4.4888e-14
1276.18 4.5617e-14
1285.03 4.5095e-14
1293.94 4.2182e-14
1305.91 4.1796e-14
1314.96 4.3165e-14
1324.08 4.1604e-14
1336.33 4.0284e-14
1345.59 4.0563e-14
1354.92 3.964e-14
1364.31 3.803e-14
1373.77 3.725e-14
1386.48 3.6655e-14
1396.09 3.007e-14
1405.77 2.8453e-14
1415.51 3.4366e-14
1425.32 3.2669e-14
1435.2 3.3353e-14
1441.83 3.3123e-14
1448.48 3.2819e-14
1455.17 3.1852e-14
1465.26 3.0984e-14
1475.41 3.0699e-14
1485.64 3.0488e-14
1495.94 2.9794e-14
1506.31 2.8916e-14
1513.26 2.7742e-14
1516.75 2.787e-14
1523.75 2.7487e-14
1534.31 2.4953e-14
1544.95 2.2394e-14
1555.66 2.2342e-14
1566.44 2.4051e-14
1573.67 2.4725e-14
1584.58 2.4611e-14
1595.56 2.4385e-14
1606.62 2.3395e-14
1614.04 2.281e-14
1625.22 2.2653e-14
1636.49 2.281e-14
1644.04 2.2291e-14
1655.44 2.2446e-14
1666.92 2.2291e-14
1670.76 2.119e-14
1678.47 2.2705e-14
1686.22 2.2189e-14
1694.0 2.1534e-14
1705.74 2.1044e-14
1713.62 2.0283e-14
1725.49 1.9867e-14
1733.46 2.0236e-14
1745.47 1.9867e-14
1753.53 1.9685e-14
1765.69 1.9281e-14
1773.84 1.8842e-14
1786.13 1.8842e-14
1794.38 1.8669e-14
1806.81 1.8541e-14
1815.15 1.7788e-14
1823.53 1.7706e-14
1836.17 1.7463e-14
1844.65 1.6639e-14
1853.16 1.6525e-14
1866.01 1.6487e-14
1874.62 1.6487e-14
1883.27 1.5636e-14
1896.33 1.5175e-14
1905.08 1.5529e-14
1913.87 1.5036e-14
1927.14 1.4459e-14
1936.04 1.483e-14
1944.97 1.4898e-14
1953.95 1.4032e-14
1967.49 1.4392e-14
1976.58 1.4526e-14
1985.7 1.4032e-14
1994.87 1.3681e-14
2004.07 1.3745e-14
2013.32 1.3587e-14
2027.28 1.3619e-14
2036.64 1.3066e-14
2046.04 1.2976e-14
2055.48 1.1275e-14
2064.97 1.1861e-14
2074.5 1.2857e-14
2079.28 1.242e-14
2084.08 1.2478e-14
2093.7 1.2082e-14
2103.36 1.2138e-14
2113.07 1.211e-14
2122.82 1.1999e-14
2132.62 1.178e-14
2147.4 1.1511e-14
2157.31 1.1591e-14
2167.27 1.1301e-14
2177.28 1.1249e-14
2187.33 1.1019e-14
2197.42 1.107e-14
2202.49 1.0893e-14
2212.65 1.062e-14
2222.87 1.0474e-14
2233.13 1.0402e-14
2243.43 1.026e-14
2253.79 1.0026e-14
2264.19 1.0026e-14
2274.64 9.9341e-15
2285.14 9.7979e-15
2295.69 9.4247e-15
2306.29 9.4463e-15
2316.93 9.3597e-15
2327.63 8.735e-15
2332.99 9.0942e-15
2343.76 9.0109e-15
2354.58 8.9697e-15
2365.45 8.8264e-15
2376.37 8.7457e-15
2387.34 8.4881e-15
2392.84 8.5373e-15
2403.88 8.4399e-15
2414.98 8.3821e-15
2426.13 8.3633e-15
2437.33 8.2111e-15
2442.94 8.183e-15
2454.22 8.1085e-15
2465.55 8.0163e-15
2476.93 7.9251e-15
2482.64 7.8437e-15
2494.1 7.0235e-15
2505.61 7.6841e-15
2511.39 7.3302e-15
2517.17 7.5272e-15
2522.98 7.5016e-15
2534.62 7.4507e-15
2546.32 7.3324e-15
2552.19 7.3244e-15
2563.97 7.258e-15
2575.81 7.2422e-15
2587.7 7.1602e-15
2593.66 7.0705e-15
2605.63 7.0066e-15
2617.66 6.9115e-15
2623.7 6.8881e-15
2635.81 6.8417e-15
2647.97 6.8427e-15
2654.08 6.7727e-15
2666.33 6.6502e-15
2672.47 6.5973e-15
2684.81 6.5832e-15
2697.2 6.4493e-15
2703.42 6.4277e-15
2715.9 6.3406e-15
2722.16 6.2758e-15
2734.72 6.2051e-15
2747.35 6.1353e-15
2753.68 6.0867e-15
2766.39 6.046e-15
2772.77 6.0536e-15
2785.57 5.9855e-15
2791.99 5.7763e-15
2804.87 5.8042e-15
2817.82 5.8592e-15
2824.32 5.7861e-15
2837.35 5.6949e-15
2843.89 5.6629e-15
2857.02 5.6123e-15
2863.61 5.5936e-15
2876.83 5.5437e-15
2883.46 5.4999e-15
2896.77 5.4509e-15
2910.14 5.4147e-15
2930.31 5.3119e-15
2950.62 5.1991e-15
2971.07 5.1358e-15
2991.67 5.0501e-15
3012.41 4.9658e-15
3033.29 4.883e-15
3047.29 4.8065e-15
3068.41 4.7264e-15
3089.68 4.6478e-15
3111.1 4.581e-15
3132.66 4.4945e-15
3147.12 4.4242e-15
3168.94 4.3507e-15
3190.9 4.2589e-15
3213.02 4.2077e-15
3227.85 4.1419e-15
3250.23 4.1016e-15
3272.75 4.0337e-15
3287.86 3.98e-15
3310.65 3.9232e-15
3318.28 4.0479e-15
3325.93 4.0721e-15
3333.6 4.0124e-15
3341.29 3.8726e-15
3348.99 4.0513e-15
3356.71 3.8387e-15
3364.45 3.8262e-15
3372.2 3.7356e-15
3379.97 3.7667e-15
3387.77 3.8419e-15
3395.58 3.8739e-15
3403.4 3.7131e-15
3411.25 3.7097e-15
3419.11 3.7751e-15
3426.99 3.789e-15
3434.89 3.803e-15
3442.81 3.7387e-15
3450.75 3.6925e-15
3458.7 3.5885e-15
3466.68 3.6435e-15
3474.67 3.5985e-15
3482.68 3.4891e-15
3490.71 3.6084e-15
3498.75 3.5968e-15
3506.82 3.5198e-15
3514.9 3.4684e-15
3523.01 3.5134e-15
3531.13 3.4941e-15
3539.27 3.5151e-15
3547.43 3.5444e-15
3555.6 3.5249e-15
3563.8 3.4974e-15
3572.02 3.4702e-15
3580.25 3.334e-15
3588.5 3.2928e-15
3596.78 3.3127e-15
3605.07 3.3557e-15
3613.38 3.345e-15
3621.71 3.3574e-15
3630.06 3.4168e-15
3638.43 3.3514e-15
3646.81 3.3177e-15
3655.22 3.2995e-15
3663.65 3.289e-15
3672.09 3.2559e-15
3680.56 3.2232e-15
3683.44 2.9368e-15
3686.19 3.2609e-15
3688.93 2.463e-15
3691.67 2.4738e-15
3694.42 2.8341e-15
3697.16 2.5569e-15
3699.9 3.2194e-15
3702.64 2.7891e-15
3705.39 3.0988e-15
3708.13 2.9442e-15
3710.87 2.981e-15
3713.62 2.6588e-15
3716.36 3.3443e-15
3719.1 5.0543e-15
3721.85 7.9917e-15
3724.59 1.0345e-14
3727.33 9.1476e-15
3730.08 7.1188e-15
3732.82 4.3556e-15
3735.56 3.3651e-15
3738.31 3.4312e-15
3741.05 2.8673e-15
3743.79 2.7912e-15
3746.53 2.9519e-15
3749.28 3.6027e-15
3752.02 3.3131e-15
3754.76 2.4727e-15
3757.51 2.425e-15
3760.25 2.6874e-15
3762.99 2.6877e-15
3765.74 2.6001e-15
3768.48 3.1097e-15
3771.22 3.0592e-15
3773.97 3.0147e-15
3776.71 2.7814e-15
3779.45 2.645e-15
3782.2 2.6843e-15
3784.94 3.0934e-15
3787.68 2.6077e-15
3790.42 2.6104e-15
3793.17 3.5867e-15
3795.91 3.7611e-15
3798.65 3.2123e-15
3801.4 2.5656e-15
3804.14 2.6875e-15
3806.88 2.5552e-15
3809.63 2.5222e-15
3812.37 2.8116e-15
3815.11 2.8599e-15
3817.86 2.8529e-15
3820.6 2.8046e-15
3823.34 2.2224e-15
3826.09 3.2214e-15
3828.83 3.8569e-15
3831.57 3.7423e-15
3834.31 3.7463e-15
3837.06 3.2741e-15
3839.8 2.4989e-15
3842.54 2.4104e-15
3845.29 3.2173e-15
3848.03 2.8117e-15
3850.77 2.6996e-15
3853.52 3.1096e-15
3856.26 3.1943e-15
3859.0 3.1397e-15
3861.75 4.259e-15
3864.49 5.3232e-15
3867.23 5.3226e-15
3869.98 4.3974e-15
3872.72 3.436e-15
3875.46 2.9902e-15
3878.21 3.0894e-15
3880.95 4.07e-15
3883.69 5.2832e-15
3886.43 6.4093e-15
3889.18 5.3727e-15
3891.92 3.4714e-15
3894.66 2.6191e-15
3897.41 2.6338e-15
3900.15 2.4565e-15
3902.89 2.7986e-15
3905.64 2.734e-15
3908.38 2.6248e-15
3911.12 2.801e-15
3913.87 2.6751e-15
3916.61 2.639e-15
3919.35 2.5555e-15
3922.1 2.5697e-15
3924.84 2.4495e-15
3927.58 2.4687e-15
3930.32 2.7918e-15
3933.07 2.3954e-15
3935.81 2.9497e-15
3938.55 2.5222e-15
3941.3 2.4143e-15
3944.04 2.5036e-15
3946.78 2.6855e-15
3949.53 2.6667e-15
3952.27 2.6294e-15
3955.01 2.2925e-15
3957.76 2.6499e-15
3960.5 3.4969e-15
3963.24 4.5729e-15
3965.99 5.7511e-15
3968.73 5.4474e-15
3971.47 4.6405e-15
3974.21 3.0699e-15
3976.96 2.6909e-15
3979.7 2.553e-15
3982.44 2.4202e-15
3985.19 2.4315e-15
3987.93 2.7053e-15
3990.67 2.4633e-15
3993.42 2.5346e-15
3996.16 2.5654e-15
3998.9 2.4336e-15
4001.65 2.1243e-15
4004.39 2.3754e-15
4007.13 2.5221e-15
4009.88 2.3135e-15
4012.62 2.3438e-15
4015.36 2.199e-15
4018.1 2.4606e-15
4020.85 2.7156e-15
4023.59 2.6303e-15
4026.33 2.6155e-15
4029.08 2.5786e-15
4031.82 2.5254e-15
4034.56 2.204e-15
4037.31 2.4433e-15
4040.05 2.3549e-15
4042.79 2.1192e-15
4045.54 2.1647e-15
4048.28 2.2655e-15
4051.02 2.3533e-15
4053.77 2.3199e-15
4056.51 2.8227e-15
4059.25 2.336e-15
4061.99 2.4456e-15
4064.74 2.5538e-15
4067.48 2.221e-15
4070.22 2.3721e-15
4072.97 2.4212e-15
4075.71 2.4397e-15
4078.45 2.3473e-15
4081.2 2.3855e-15
4083.94 2.1966e-15
4086.68 2.4206e-15
4089.43 2.5029e-15
4092.17 2.956e-15
4094.91 4.2119e-15
4097.66 6.1986e-15
4100.4 6.5514e-15
4103.14 5.2981e-15
4105.88 3.4068e-15
4108.63 2.6864e-15
4111.37 2.4849e-15
4114.11 2.3992e-15
4116.86 2.1331e-15
4119.6 2.2927e-15
4122.34 2.0431e-15
4125.09 2.0289e-15
4127.83 2.1464e-15
4130.57 2.2799e-15
4133.32 2.3716e-15
4136.06 2.3247e-15
4138.8 2.1645e-15
4141.55 2.1736e-15
4144.29 2.3553e-15
4147.03 2.1783e-15
4149.77 2.3428e-15
4152.52 2.2189e-15
4155.26 2.1852e-15
4158.0 2.2802e-15
4160.75 2.006e-15
4163.49 2.0606e-15
4166.23 2.1416e-15
4168.98 2.301e-15
4171.72 2.0802e-15
4174.46 1.9942e-15
4177.21 2.0251e-15
4179.95 2.3033e-15
4182.69 2.3639e-15
4185.44 2.5291e-15
4188.18 2.5512e-15
4190.92 2.465e-15
4193.66 2.2342e-15
4196.41 2.1459e-15
4199.15 2.1597e-15
4201.89 2.4096e-15
4204.64 2.2101e-15
4207.38 2.1865e-15
4210.12 2.1654e-15
4212.87 2.0057e-15
4215.61 2.1553e-15
4218.35 2.1566e-15
4221.1 2.0715e-15
4223.84 1.981e-15
4226.58 1.9429e-15
4229.33 2.025e-15
4232.07 2.185e-15
4234.81 2.0486e-15
4237.55 1.8926e-15
4240.3 2.0301e-15
4243.04 2.0454e-15
4245.78 2.0413e-15
4248.53 2.0588e-15
4251.27 2.025e-15
4254.01 1.8247e-15
4256.76 1.9638e-15
4259.5 2.1336e-15
4262.24 2.1501e-15
4264.99 1.8433e-15
4267.73 1.9282e-15
4270.47 2.011e-15
4273.22 1.9734e-15
4275.96 2.0255e-15
4278.7 2.0093e-15
4281.44 2.0362e-15
4284.19 2.3444e-15
4286.93 1.9778e-15
4289.67 1.8832e-15
4292.42 1.971e-15
4295.16 1.9754e-15
4297.9 2.0454e-15
4300.65 1.9644e-15
4303.39 2.0274e-15
4306.13 1.8296e-15
4308.88 1.9191e-15
4311.62 1.9427e-15
4314.36 1.9664e-15
4317.11 1.7937e-15
4319.85 1.8342e-15
4322.59 2.0931e-15
4325.33 2.0141e-15
4328.08 2.1358e-15
4330.82 2.8071e-15
4333.56 5.3613e-15
4336.31 9.5007e-15
4339.05 1.0635e-14
4341.79 8.5017e-15
4344.54 4.4557e-15
4347.28 2.7847e-15
4350.02 2.2185e-15
4352.77 2.1506e-15
4355.51 2.3753e-15
4358.25 2.7908e-15
4361.0 2.9074e-15
4363.74 2.5821e-15
4366.48 2.3569e-15
4369.23 2.3879e-15
4371.97 2.0004e-15
4374.71 1.9139e-15
4377.45 1.913e-15
4380.2 1.7169e-15
4382.94 1.9741e-15
4385.68 1.8709e-15
4388.43 1.7685e-15
4391.17 1.8066e-15
4393.91 1.6764e-15
4396.66 1.8436e-15
4399.4 1.8719e-15
4402.14 2.0178e-15
4404.89 1.874e-15
4407.63 1.9464e-15
4410.37 1.6992e-15
4413.12 1.8653e-15
4415.86 1.8427e-15
4418.6 1.9958e-15
4421.34 1.7988e-15
4424.09 1.8538e-15
4426.83 1.8675e-15
4429.57 1.7225e-15
4432.32 1.9018e-15
4435.06 1.9024e-15
4437.8 1.8964e-15
4440.55 1.8617e-15
4443.29 1.9817e-15
4446.03 1.9429e-15
4448.78 1.7639e-15
4451.52 1.8529e-15
4454.26 1.8364e-15
4457.01 1.8523e-15
4459.75 1.781e-15
4462.49 1.8119e-15
4465.23 2.0947e-15
4467.98 2.3818e-15
4470.72 2.3959e-15
4473.46 2.0669e-15
4476.21 1.8507e-15
4478.95 1.9631e-15
4481.69 1.8157e-15
4484.44 1.7803e-15
4487.18 1.7422e-15
4489.92 1.7472e-15
4492.67 1.7658e-15
4495.41 1.787e-15
4498.15 1.7146e-15
4500.9 1.8835e-15
4503.64 1.783e-15
4506.38 1.7521e-15
4509.12 1.777e-15
4511.87 1.7172e-15
4514.61 1.7789e-15
4517.35 1.8458e-15
4520.1 1.8074e-15
4522.84 1.7481e-15
4525.58 1.4922e-15
4528.33 1.7199e-15
4531.07 1.7474e-15
4533.81 1.8627e-15
4536.56 1.97e-15
4539.3 1.8519e-15
4542.04 1.6651e-15
4544.79 1.6793e-15
4547.53 1.9131e-15
4550.27 1.7984e-15
4553.01 1.6698e-15
4555.76 1.6397e-15
4558.5 1.6321e-15
4561.24 1.5579e-15
4563.99 1.7704e-15
4566.73 1.7811e-15
4569.47 1.665e-15
4572.22 1.8791e-15
4574.96 1.7303e-15
4577.7 1.6209e-15
4580.45 1.6965e-15
4583.19 1.7083e-15
4585.93 1.7069e-15
4588.68 1.7562e-15
4591.42 1.7113e-15
4594.16 1.6516e-15
4596.9 1.7156e-15
4599.65 1.6668e-15
4602.39 1.6904e-15
4605.13 1.6488e-15
4607.88 1.625e-15
4610.62 1.5857e-15
4613.36 1.7239e-15
4616.11 1.7317e-15
4618.85 1.779e-15
4621.59 1.8199e-15
4624.34 1.6363e-15
4627.08 1.5642e-15
4629.82 1.7048e-15
4632.57 1.6592e-15
4635.31 1.6584e-15
4638.05 1.5795e-15
4640.79 1.6409e-15
4643.54 1.5894e-15
4646.28 1.6603e-15
4649.02 1.6284e-15
4651.77 1.6861e-15
4654.51 1.7511e-15
4657.25 1.6964e-15
4660.0 1.7758e-15
4662.74 1.7621e-15
4665.48 1.6266e-15
4668.23 1.5531e-15
4670.97 1.6332e-15
4673.71 1.5684e-15
4676.46 1.5778e-15
4679.2 1.8164e-15
4681.94 1.9077e-15
4684.68 2.0289e-15
4687.43 1.8567e-15
4690.17 1.7438e-15
4692.91 1.7182e-15
4695.66 1.6246e-15
4698.4 1.6681e-15
4701.14 1.7247e-15
4703.89 1.6275e-15
4706.63 1.6165e-15
4709.37 1.7054e-15
4712.12 1.6801e-15
4714.86 1.6818e-15
4717.6 1.4236e-15
4720.35 1.6487e-15
4723.09 1.56e-15
4725.83 1.4271e-15
4728.57 1.5525e-15
4731.32 1.6353e-15
4734.06 1.6661e-15
4736.8 1.6626e-15
4739.55 1.6185e-15
4742.29 1.4599e-15
4745.03 1.5692e-15
4747.78 1.6488e-15
4750.52 1.546e-15
4753.26 1.4266e-15
4756.01 1.5865e-15
4758.75 1.5612e-15
4761.49 1.543e-15
4764.24 1.5268e-15
4766.98 1.509e-15
4769.72 1.4053e-15
4772.46 1.6156e-15
4775.21 1.4916e-15
4777.95 1.6244e-15
4780.69 1.5103e-15
4783.44 1.4206e-15
4786.18 1.3608e-15
4788.92 1.5431e-15
4791.67 1.4239e-15
4794.41 1.387e-15
4797.15 1.506e-15
4799.9 1.4558e-15
4802.64 1.4158e-15
4805.38 1.4963e-15
4808.13 1.449e-15
4810.87 1.3453e-15
4813.61 1.4961e-15
4816.35 1.413e-15
4819.1 1.4876e-15
4821.84 1.4606e-15
4824.58 1.4846e-15
4827.33 1.4568e-15
4830.07 1.496e-15
4832.81 1.4905e-15
4835.56 1.5165e-15
4838.3 1.546e-15
4841.04 1.4736e-15
4843.79 1.4378e-15
4846.53 1.6297e-15
4849.27 2.0806e-15
4852.02 4.001e-15
4854.76 1.0098e-14
4857.5 1.8363e-14
4860.25 2.0784e-14
4862.99 1.4728e-14
4865.73 7.1908e-15
4868.47 3.0341e-15
4871.22 1.7738e-15
4873.96 1.5999e-15
4876.7 1.5648e-15
4879.45 1.4623e-15
4882.19 1.4711e-15
4884.93 1.4071e-15
4887.68 1.4369e-15
4890.42 1.4212e-15
4893.16 1.3503e-15
4895.91 1.3976e-15
4898.65 1.4444e-15
4901.39 1.5038e-15
4904.14 1.4013e-15
4906.88 1.5348e-15
4909.62 1.5466e-15
4912.36 1.5098e-15
4915.11 1.3233e-15
4917.85 1.6822e-15
4920.59 1.6169e-15
4923.34 1.4096e-15
4926.08 1.5043e-15
4928.82 1.4011e-15
4931.57 1.3762e-15
4934.31 1.2746e-15
4937.05 1.3682e-15
4939.8 1.4496e-15
4942.54 1.3512e-15
4945.28 1.4924e-15
4948.03 1.7825e-15
4950.77 3.9624e-15
4953.51 8.2559e-15
4956.25 1.2663e-14
4959.0 1.1974e-14
4961.74 7.0594e-15
4964.48 3.3857e-15
4967.23 2.023e-15
4969.97 1.5866e-15
4972.71 1.4486e-15
4975.46 1.3404e-15
4978.2 1.4503e-15
4980.94 1.4737e-15
4983.69 1.6287e-15
4986.43 1.6327e-15
4989.17 1.6885e-15
4991.92 1.6413e-15
4994.66 2.3927e-15
4997.4 5.1529e-15
5000.14 1.5112e-14
5002.89 3.0646e-14
5005.63 3.6708e-14
5008.37 2.6569e-14
5011.12 1.1834e-14
5013.86 4.3845e-15
5016.6 2.446e-15
5019.35 1.7321e-15
5022.09 1.4668e-15
5024.83 1.4105e-15
5027.58 1.3105e-15
5030.32 1.3626e-15
5033.06 1.4893e-15
5035.81 1.5078e-15
5038.55 1.34e-15
5041.29 1.3667e-15
5044.03 1.3523e-15
5046.78 1.2297e-15
5049.52 1.3787e-15
5052.26 1.3186e-15
5055.01 1.3059e-15
5057.75 1.3604e-15
5060.49 1.3531e-15
5063.24 1.3438e-15
5065.98 1.3787e-15
5068.72 1.1896e-15
5071.47 1.3408e-15
5074.21 1.2686e-15
5076.95 1.368e-15
5079.7 1.4529e-15
5082.44 1.4423e-15
5085.18 1.4182e-15
5087.92 1.1938e-15
5090.67 1.2213e-15
5093.41 1.3167e-15
5096.15 1.3464e-15
5098.9 1.3258e-15
5101.64 1.2302e-15
5104.38 1.1605e-15
5107.13 1.3132e-15
5109.87 1.3123e-15
5112.61 1.0801e-15
5115.36 1.3342e-15
5118.1 1.3704e-15
5120.84 1.2683e-15
5123.59 1.285e-15
5126.33 1.3626e-15
5129.07 1.3102e-15
5131.81 1.265e-15
5134.56 1.2245e-15
5137.3 1.1659e-15
5140.04 1.1356e-15
5142.79 1.1203e-15
5145.53 1.1202e-15
5148.27 1.2744e-15
5151.02 1.3827e-15
5153.76 1.2015e-15
5156.5 1.3712e-15
5159.25 1.1769e-15
5161.99 1.169e-15
5164.73 1.1993e-15
5167.48 1.2777e-15
5170.22 1.3353e-15
5172.96 1.2232e-15
5175.7 1.1725e-15
5178.45 1.2273e-15
5181.19 1.2567e-15
5183.93 1.1677e-15
5186.68 1.0643e-15
5189.42 1.1827e-15
5192.16 1.1499e-15
5194.91 1.1431e-15
5197.65 1.125e-15
5200.39 1.2881e-15
5203.14 1.3132e-15
5205.88 1.1725e-15
5208.62 1.191e-15
5211.37 1.2756e-15
5214.11 1.1681e-15
5216.85 1.1514e-15
5219.59 1.1424e-15
5222.34 1.3334e-15
5225.08 1.1059e-15
5227.82 1.1731e-15
5230.57 1.2369e-15
5233.31 1.2868e-15
5236.05 1.1051e-15
5238.8 9.9718e-16
5241.54 1.0264e-15
5244.28 1.1224e-15
5247.03 1.3365e-15
5249.77 1.2222e-15
5252.51 1.2968e-15
5255.26 1.2016e-15
5258.0 1.2472e-15
5260.74 1.1122e-15
5263.48 1.1746e-15
5266.23 1.2709e-15
5268.97 1.2967e-15
5271.71 1.2717e-15
5274.46 1.0374e-15
5277.2 1.0753e-15
5279.94 1.1212e-15
5282.69 1.0971e-15
5285.43 1.1802e-15
5288.17 1.1822e-15
5290.92 1.2282e-15
5293.66 1.3169e-15
5296.4 1.4551e-15
5299.15 1.4503e-15
5301.89 1.3841e-15
5304.63 1.214e-15
5307.37 1.3307e-15
5310.12 1.1706e-15
5312.86 1.2757e-15
5315.6 9.7949e-16
5318.35 1.2156e-15
5321.09 1.1921e-15
5323.83 1.051e-15
5326.58 1.1392e-15
5329.32 1.1741e-15
5332.06 1.203e-15
5334.81 1.127e-15
5337.55 1.1096e-15
5340.29 9.5538e-16
5343.04 1.0846e-15
5345.78 1.1404e-15
5348.52 1.2857e-15
5351.27 1.2308e-15
5354.01 1.1539e-15
5356.75 1.2417e-15
5359.49 1.2108e-15
5362.24 1.0633e-15
5364.98 1.0876e-15
5367.72 1.1597e-15
5370.47 1.106e-15
5373.21 1.1318e-15
5375.95 1.1751e-15
5378.7 1.1923e-15
5381.44 1.1487e-15
5384.18 1.1072e-15
5386.93 1.1364e-15
5389.67 1.0359e-15
5392.41 1.1171e-15
5395.16 1.1644e-15
5397.9 1.095e-15
5400.64 1.067e-15
5403.38 1.1403e-15
5406.13 1.1353e-15
5408.87 9.6865e-16
5411.61 1.0415e-15
5414.36 1.0623e-15
5417.1 1.0451e-15
5419.84 1.075e-15
5422.59 9.8246e-16
5425.33 1.0242e-15
5428.07 9.2914e-16
5430.82 1.0422e-15
5433.56 1.1196e-15
5436.3 1.0001e-15
5439.05 9.6881e-16
5441.79 9.4652e-16
5444.53 8.5123e-16
5447.27 1.0317e-15
5450.02 8.8353e-16
5452.76 9.9767e-16
5455.5 1.1534e-15
5458.25 1.1329e-15
5460.99 1.0717e-15
5463.73 1.1321e-15
5466.48 1.0793e-15
5469.22 9.6383e-16
5471.96 1.1271e-15
5474.71 1.0724e-15
5477.45 1.0674e-15
5480.19 1.009e-15
5482.94 1.171e-15
5485.68 1.1486e-15
5488.42 1.058e-15
5491.16 1.1147e-15
5493.91 1.1047e-15
5496.65 9.3788e-16
5499.39 1.1494e-15
5502.14 1.1209e-15
5504.88 9.1273e-16
5507.62 8.7715e-16
5510.37 1.1542e-15
5513.11 1.0904e-15
5515.85 1.1261e-15
5518.6 1.1821e-15
5521.34 1.0893e-15
5524.08 1.0305e-15
5526.83 1.0622e-15
5529.57 9.8989e-16
5532.31 1.1371e-15
5535.05 1.2224e-15
5537.8 9.6861e-16
5540.54 9.8356e-16
5543.28 1.0288e-15
5546.03 1.1384e-15
5548.77 9.922e-16
5551.51 8.4598e-16
5554.26 9.9182e-16
5557.0 1.2439e-15
5559.74 1.2565e-15
5562.49 8.5007e-16
5565.23 9.4492e-16
5567.97 9.5039e-16
5570.72 1.0159e-15
5573.46 9.7209e-16
5576.2 1.1152e-15
5578.94 9.9056e-16
5581.69 9.8344e-16
5584.43 1.0756e-15
5587.17 1.0361e-15
5589.92 8.7241e-16
5592.66 1.0491e-15
5595.4 8.6109e-16
5598.15 9.7595e-16
5600.89 9.8421e-16
5603.63 9.2854e-16
5606.38 1.0232e-15
5609.12 1.0826e-15
5611.86 9.7262e-16
5614.61 1.089e-15
5617.35 1.111e-15
5620.09 9.4536e-16
5622.83 1.0637e-15
5625.58 9.4908e-16
5628.32 1.0596e-15
5631.06 1.1026e-15
5633.81 9.7174e-16
5636.55 9.2244e-16
5639.29 9.9257e-16
5642.04 1.1038e-15
5644.78 1.1187e-15
5647.52 8.8546e-16
5650.27 8.7437e-16
5653.01 9.6935e-16
5655.75 9.736e-16
5658.5 9.3373e-16
5661.24 9.2494e-16
5663.98 1.0376e-15
5666.72 1.1964e-15
5669.47 1.0757e-15
5672.21 9.6637e-16
5674.95 9.0392e-16
5677.7 1.1813e-15
5680.44 1.2069e-15
5683.18 9.0091e-16
5685.93 8.4881e-16
5688.67 9.4983e-16
5691.41 1.1086e-15
5694.16 1.0262e-15
5696.9 9.7386e-16
5699.64 9.3599e-16
5702.39 8.4764e-16
5705.13 8.4026e-16
5707.87 9.8876e-16
5710.61 9.4033e-16
5713.36 8.2413e-16
5716.1 1.0209e-15
5718.84 8.8629e-16
5721.59 9.3382e-16
5724.33 8.5937e-16
5727.07 9.9122e-16
5729.82 9.316e-16
5732.56 9.454e-16
5735.3 1.0739e-15
5738.05 8.8054e-16
5740.79 9.576e-16
5743.53 8.4008e-16
5746.28 1.009e-15
5749.02 9.5575e-16
5751.76 8.9406e-16
5754.5 8.9761e-16
5757.25 9.9165e-16
5759.99 8.9662e-16
5762.73 8.1346e-16
5765.48 8.4272e-16
5768.22 8.3272e-16
5770.96 8.8053e-16
5773.71 1.0358e-15
5776.45 9.071e-16
5779.19 9.3573e-16
5781.94 8.5272e-16
5784.68 1.0384e-15
5787.42 1.0703e-15
5790.17 9.1203e-16
5792.91 9.5336e-16
5795.65 7.7608e-16
5798.39 8.8546e-16
5801.14 1.0073e-15
5803.88 9.4431e-16
5806.62 9.2241e-16
5809.37 1.0113e-15
5812.11 9.7823e-16
5814.85 9.307e-16
5817.6 9.2431e-16
5820.34 9.8245e-16
5823.08 9.5562e-16
5825.83 9.4719e-16
5828.57 7.6468e-16
5831.31 8.2014e-16
5834.06 8.8268e-16
5836.8 1.1181e-15
5839.54 8.2304e-16
5842.28 8.105e-16
5845.03 7.1248e-16
5847.77 9.0457e-16
5850.51 1.0031e-15
5853.26 8.473e-16
5856.0 1.0381e-15
5858.74 7.888e-16
5861.49 1.0458e-15
5864.23 8.7889e-16
5866.97 1.1212e-15
5869.72 1.8072e-15
5872.46 2.0806e-15
5875.2 1.9345e-15
5877.95 1.738e-15
5880.69 1.1074e-15
5883.43 9.4017e-16
5886.18 1.0397e-15
5888.92 6.9242e-16
5891.66 8.2635e-16
5894.4 8.0693e-16
5897.15 8.9163e-16
5899.89 1.0418e-15
5902.63 1.0055e-15
5905.38 1.0761e-15
5908.12 8.304e-16
5910.86 9.796e-16
5913.61 9.0376e-16
5916.35 9.1376e-16
5919.09 9.5531e-16
5921.84 7.531e-16
5924.58 8.6857e-16
5927.32 8.9112e-16
5930.07 8.091e-16
5932.81 8.2787e-16
5935.55 8.209e-16
5938.29 9.1894e-16
5941.04 6.9814e-16
5943.78 8.8583e-16
5946.52 8.2658e-16
5949.27 8.7937e-16
5952.01 7.5737e-16
5954.75 8.1303e-16
5957.5 7.2964e-16
5960.24 8.9148e-16
5962.98 7.9382e-16
5965.73 8.2761e-16
5968.47 8.9599e-16
5971.21 8.4805e-16
5973.96 7.5555e-16
5976.7 8.7189e-16
5979.44 8.5706e-16
5982.18 8.8382e-16
5984.93 9.3896e-16
5987.67 8.7383e-16
5990.41 8.6155e-16
5993.16 8.3838e-16
5995.9 6.8695e-16
5998.64 7.574e-16
6001.39 7.4404e-16
6004.13 8.0528e-16
6006.87 7.2825e-16
6009.62 8.4573e-16
6012.36 9.0295e-16
6015.1 8.2275e-16
6017.85 7.9975e-16
6020.59 7.9443e-16
6023.33 8.2265e-16
6026.07 7.6447e-16
6028.82 7.7147e-16
6031.56 1.0037e-15
6034.3 8.5426e-16
6037.05 9.1678e-16
6039.79 9.2527e-16
6042.53 7.94e-16
6045.28 7.7253e-16
6048.02 9.4218e-16
6050.76 8.9606e-16
6053.51 9.5307e-16
6056.25 8.7195e-16
6058.99 8.092e-16
6061.74 7.8904e-16
6064.48 8.7294e-16
6067.22 8.2277e-16
6069.96 8.3009e-16
6072.71 7.4918e-16
6075.45 8.7791e-16
6078.19 8.5184e-16
6080.94 8.2761e-16
6083.68 8.6551e-16
6086.42 7.9611e-16
6089.17 6.7464e-16
6091.91 6.6675e-16
6094.65 8.172e-16
6097.4 8.2616e-16
6100.14 8.1756e-16
6102.88 7.7675e-16
6105.63 7.7402e-16
6108.37 8.1882e-16
6111.11 8.0612e-16
6113.85 7.8234e-16
6116.6 8.2058e-16
6119.34 9.3477e-16
6122.08 9.2857e-16
6124.83 8.577e-16
6127.57 7.6524e-16
6130.31 7.9948e-16
6133.06 9.6771e-16
6135.8 8.5504e-16
6138.54 7.6105e-16
6141.29 8.8807e-16
6144.03 7.364e-16
6146.77 6.8719e-16
6149.52 8.4262e-16
6152.26 8.2343e-16
6155.0 7.5649e-16
6157.74 8.37e-16
6160.49 7.9329e-16
6163.23 7.3694e-16
6165.97 6.8669e-16
6168.72 7.0154e-16
6171.46 5.9485e-16
6174.2 6.2328e-16
6176.95 6.9895e-16
6179.69 8.6194e-16
6182.43 7.8971e-16
6185.18 7.6867e-16
6187.92 7.0631e-16
6190.66 7.8962e-16
6193.41 7.2483e-16
6196.15 9.0254e-16
6198.89 8.429e-16
6201.63 8.4291e-16
6204.38 6.809e-16
6207.12 7.5897e-16
6209.86 7.215e-16
6212.61 6.488e-16
6215.35 7.4292e-16
6218.09 8.7939e-16
6220.84 7.3981e-16
6223.58 7.2421e-16
6226.32 7.6902e-16
6229.07 6.0754e-16
6231.81 6.9139e-16
6234.55 7.996e-16
6237.3 7.0657e-16
6240.04 7.7699e-16
6242.78 6.3422e-16
6245.52 5.4345e-16
6248.27 7.7483e-16
6251.01 8.7374e-16
6253.75 9.3006e-16
6256.5 8.2066e-16
6259.24 7.4919e-16
6261.98 6.232e-16
6264.73 8.8895e-16
6267.47 5.9859e-16
6270.21 7.7283e-16
6272.96 7.31e-16
6275.7 5.937e-16
6278.44 6.9918e-16
6281.19 6.6163e-16
6283.93 8.2004e-16
6286.67 -2.5723e-16
6289.41 4.5646e-16
6292.16 5.0556e-16
6294.9 6.0785e-16
6297.64 8.1363e-16
6300.39 1.0864e-15
6303.13 8.5531e-16
6305.87 6.3208e-16
6308.62 6.8709e-16
6311.36 7.8954e-16
6314.1 6.3126e-16
6316.85 6.8809e-16
6319.59 8.1773e-16
6322.33 7.8485e-16
6325.08 9.2333e-16
6327.82 9.0091e-16
6330.56 7.7547e-16
6333.3 7.4265e-16
6336.05 7.8045e-16
6338.79 5.4366e-16
6341.53 7.6822e-16
6344.28 7.3532e-16
6347.02 7.0527e-16
6349.76 5.8881e-16
6352.51 8.0235e-16
6355.25 7.9116e-16
6357.99 8.2985e-16
6360.74 5.3419e-16
6363.48 5.9986e-16
6366.22 6.9205e-16
6368.97 7.9755e-16
6371.71 7.5595e-16
6374.45 6.9837e-16
6377.2 7.6461e-16
6379.94 6.6893e-16
6382.68 5.8586e-16
6385.42 6.7126e-16
6388.17 7.2397e-16
6390.91 6.6379e-16
6393.65 5.7209e-16
6396.4 6.3775e-16
6399.14 7.5464e-16
6401.88 7.2482e-16
6404.63 7.4513e-16
6407.37 8.7875e-16
6410.11 8.5572e-16
6412.86 8.3842e-16
6415.6 7.7016e-16
6418.34 7.8297e-16
6421.09 7.3381e-16
6423.83 5.8857e-16
6426.57 6.1265e-16
6429.31 6.5962e-16
6432.06 5.9976e-16
6434.8 7.3224e-16
6437.54 6.4504e-16
6440.29 7.4196e-16
6443.03 8.0451e-16
6445.77 8.5057e-16
6448.52 6.9827e-16
6451.26 4.9277e-16
6454.0 7.1607e-16
6456.75 6.0523e-16
6459.49 7.8559e-16
6462.23 7.233e-16
6464.98 7.1035e-16
6467.72 7.6285e-16
6470.46 7.7505e-16
6473.2 7.2867e-16
6475.95 9.362e-16
6478.69 9.3636e-16
6481.43 5.9377e-16
6484.18 7.6715e-16
6486.92 6.8581e-16
6489.66 5.6521e-16
6492.41 6.6426e-16
6495.15 6.2008e-16
6497.89 8.883e-16
6500.64 6.1847e-16
6503.38 6.5267e-16
6506.12 6.6606e-16
6508.87 6.3651e-16
6511.61 7.8243e-16
6514.35 4.0834e-16
6517.09 6.2982e-16
6519.84 6.267e-16
6522.58 8.0975e-16
6525.32 7.4085e-16
6528.07 6.5609e-16
6530.81 8.4868e-16
6533.55 7.3706e-16
6536.3 6.4946e-16
6539.04 8.5657e-16
6541.78 8.0987e-16
6544.53 1.0355e-15
6547.27 1.3013e-15
6550.01 2.1489e-15
6552.76 5.7221e-15
6555.5 1.9585e-14
6558.24 4.5939e-14
6560.98 5.9285e-14
6563.73 4.4824e-14
6566.47 1.9897e-14
6569.21 5.9214e-15
6571.96 2.0882e-15
6574.7 1.2982e-15
6577.44 1.1038e-15
6580.19 1.0841e-15
6582.93 9.8223e-16
6585.67 8.1293e-16
6588.42 7.1984e-16
6591.16 5.4127e-16
6593.9 8.3409e-16
6596.65 8.0867e-16
6599.39 7.873e-16
6602.13 6.4672e-16
6604.87 6.385e-16
6607.62 6.6811e-16
6610.36 7.1975e-16
6613.1 6.5251e-16
6615.85 6.3676e-16
6618.59 6.2829e-16
6621.33 6.4141e-16
6624.08 6.6135e-16
6626.82 7.191e-16
6629.56 5.8201e-16
6632.31 5.7998e-16
6635.05 6.1303e-16
6637.79 6.9943e-16
6640.54 6.3234e-16
6643.28 6.0809e-16
6646.02 6.5052e-16
6648.76 5.0217e-16
6651.51 4.7414e-16
6654.25 6.63e-16
6656.99 6.8736e-16
6659.74 6.0951e-16
6662.48 5.6308e-16
6665.22 6.6682e-16
6667.97 7.3349e-16
6670.71 6.9348e-16
6673.45 1.0812e-15
6676.2 1.3554e-15
6678.94 1.0113e-15
6681.68 9.1954e-16
6684.43 6.9056e-16
6687.17 9.7222e-16
6689.91 7.1606e-16
6692.65 7.8843e-16
6695.4 6.2676e-16
6698.14 6.8918e-16
6700.88 6.0523e-16
6703.63 5.8932e-16
6706.37 8.61e-16
6709.11 9.673e-16
6711.86 1.3071e-15
6714.6 1.311e-15
6717.34 1.4107e-15
6720.09 8.476e-16
6722.83 9.2849e-16
6725.57 1.0146e-15
6728.32 1.3025e-15
6731.06 1.2624e-15
6733.8 9.0318e-16
6736.54 7.5468e-16
6739.29 6.0425e-16
6742.03 6.6358e-16
6744.77 7.3573e-16
6747.52 8.1868e-16
6750.26 7.8484e-16
6753.0 7.4563e-16
6755.75 7.4969e-16
6758.49 7.4715e-16
6761.23 6.3093e-16
6763.98 5.1295e-16
6766.72 6.323e-16
6769.46 7.0857e-16
6772.21 6.2908e-16
6774.95 6.7755e-16
6777.69 6.1862e-16
6780.43 5.342e-16
6783.18 6.2569e-16
6785.92 5.5695e-16
6788.66 5.7759e-16
6791.41 6.733e-16
6794.15 7.063e-16
6796.89 6.6312e-16
6799.64 5.8489e-16
6802.38 7.0149e-16
6805.12 7.7697e-16
6807.87 6.349e-16
6810.61 6.8393e-16
6822.03 6.7099e-16
6837.75 6.6775e-16
6853.51 6.63e-16
6869.32 6.5074e-16
6885.15 6.5059e-16
6901.02 6.4745e-16
6916.93 6.4581e-16
6932.88 6.3973e-16
6948.86 6.3958e-16
6964.88 6.3066e-16
6980.93 6.3488e-16
6997.02 6.2314e-16
7013.15 6.1728e-16
7029.32 6.1571e-16
7045.53 6.1556e-16
7061.77 6.1683e-16
7078.05 6.1385e-16
7094.36 6.1088e-16
7110.72 6.0792e-16
7127.11 5.9944e-16
7143.54 6.0206e-16
7160.01 5.9639e-16
7176.51 5.6941e-16
7193.06 5.2883e-16
7209.64 5.5489e-16
7226.26 5.8358e-16
7242.92 5.5334e-16
7259.61 5.4561e-16
7276.35 5.6725e-16
7293.12 5.645e-16
7309.93 5.4395e-16
7326.78 5.5776e-16
7343.68 5.6798e-16
7360.6 5.5619e-16
7377.57 5.5862e-16
7394.58 5.4577e-16
7411.63 5.5194e-16
7428.71 5.3924e-16
7445.83 5.4535e-16
7463.0 5.4898e-16
7480.2 5.4131e-16
7497.45 5.3993e-16
7514.73 5.3607e-16
7532.06 5.3224e-16
7549.42 5.321e-16
7566.82 5.2467e-16
7584.27 5.2332e-16
7601.75 5.1601e-16
7619.27 5.0997e-16
7636.84 5.0983e-16
7654.44 5.097e-16
7672.08 4.8775e-16
7689.77 4.9554e-16
7707.5 4.8637e-16
7725.26 4.8624e-16
7743.08 4.8948e-16
7760.93 4.8374e-16
7778.81 4.6079e-16
7796.75 4.7357e-16
7814.72 4.7672e-16
7832.73 4.7879e-16
7850.79 4.7866e-16
7868.89 4.7853e-16
7887.03 4.6859e-16
7905.21 4.6097e-16
7923.44 4.5662e-16
7941.7 4.523e-16
7960.01 4.501e-16
7978.36 4.5101e-16
7996.75 4.4882e-16
8015.18 4.4663e-16
8033.66 4.3937e-16
8052.18 4.4433e-16
8070.74 4.4318e-16
8089.35 4.3297e-16
8108.0 4.2888e-16
8126.69 4.3273e-16
8145.42 4.2765e-16
8164.2 4.1017e-16
8183.02 4.2349e-16
8201.88 4.0994e-16
8220.79 4.1648e-16
8239.74 3.8501e-16
8258.73 4.2106e-16
8277.77 4.1901e-16
8296.86 3.9636e-16
8315.98 3.9992e-16
8335.15 4.0165e-16
8354.37 4.006e-16
8373.62 4.0234e-16
8392.93 3.9579e-16
8412.28 4.021e-16
8431.67 4.0198e-16
8451.1 3.9001e-16
8470.58 3.9623e-16
8490.11 3.9978e-16
8509.68 3.4729e-16
8529.3 3.9679e-16
8548.96 3.2391e-16
8568.67 3.9291e-16
8588.42 3.9461e-16
8608.22 3.4677e-16
8628.07 3.8539e-16
8647.96 3.8528e-16
8667.89 3.4565e-16
8687.87 3.6183e-16
8707.9 3.71e-16
8727.97 3.726e-16
8748.1 3.6401e-16
8768.26 3.589e-16
8788.47 3.663e-16
8808.73 3.6619e-16
8829.04 3.5857e-16
8849.39 3.5435e-16
8869.79 3.1067e-16
8890.24 3.4767e-16
8910.73 3.5402e-16
8931.27 3.5147e-16
8951.86 3.4415e-16
8972.5 3.2034e-16
8993.18 3.3688e-16
9013.92 3.172e-16
9034.69 3.2078e-16
9055.52 3.5815e-16
9076.4 3.4271e-16
9097.32 3.1462e-16
9118.29 3.2707e-16
9139.31 3.1297e-16
9160.38 3.1071e-16
9181.5 3.0635e-16
9202.66 3.2365e-16
9223.88 3.0757e-16
9245.14 3.0255e-16
9266.45 3.2483e-16
9287.82 3.0027e-16
9309.22 2.8403e-16
9330.68 3.1494e-16
9352.19 3.1266e-16
9373.75 3.0969e-16
9395.36 3.0959e-16
9417.02 3.0454e-16
9438.73 3.0584e-16
9460.49 3.0294e-16
9482.29 3.0144e-16
9504.16 2.9789e-16
9526.06 2.9236e-16
9548.02 2.7087e-16
9570.04 2.8948e-16
9592.1 2.9206e-16
9614.21 2.8995e-16
9636.37 2.8785e-16
9658.59 2.8577e-16
9680.85 2.8436e-16
9703.16 2.8166e-16
9725.54 2.8026e-16
9747.95 2.7824e-16
9770.42 2.775e-16
9792.95 2.7486e-16
9815.52 2.754e-16
9838.15 2.7341e-16
9860.83 2.7205e-16
9883.56 2.6823e-16
9906.34 2.669e-16
9929.18 2.6558e-16
9952.07 2.6487e-16
9975.01 2.6296e-16
9998.01 2.6165e-16
10021.05 2.5385e-16
10067.31 2.4732e-16
10113.78 2.5058e-16
10183.88 2.4687e-16
10230.9 2.4443e-16
10278.11 2.4201e-16
10301.81 2.397e-16
10493.33 2.2665e-16
10688.42 2.1386e-16
10912.23 2.0005e-16
11089.54 1.9504e-16
11295.71 1.8498e-16
11505.71 1.7829e-16
11692.66 1.6988e-16
11910.05 1.6223e-16
12103.57 1.5564e-16
12300.24 1.4967e-16
12500.1 1.4359e-16
12703.21 1.3808e-16
12909.62 1.3247e-16
13089.21 1.2768e-16
13301.89 1.2278e-16
13486.94 1.1889e-16
13706.09 1.1459e-16
13896.76 1.107e-16
14090.08 1.0694e-16
14286.1 1.0307e-16
14484.84 1.0049e-16
14686.34 9.708e-17
14890.64 9.4435e-17
15097.79 9.165e-17
15307.82 8.9977e-17
15485.08 8.8947e-17
15700.5 8.5336e-17
15882.31 8.1871e-17
16103.25 7.6186e-17
16289.71 7.3688e-17
16516.32 7.0778e-17
16707.58 6.8393e-17
16901.04 6.6149e-17
17096.75 6.3923e-17
17294.71 6.1789e-17
17494.98 5.9715e-17
17697.57 5.7687e-17
17902.5 5.5759e-17
18109.78 5.385e-17
18319.49 5.2043e-17
18489.01 5.0609e-17
18703.08 4.89e-17
18919.66 4.7232e-17
19094.73 4.5938e-17
19315.84 4.4372e-17
19494.55 4.3149e-17
19720.3 4.1678e-17
19902.78 4.0524e-17
20086.92 3.9415e-17
20319.52 3.8055e-17
20507.54 3.7018e-17
20697.28 3.5992e-17
20888.8 3.5004e-17
21082.07 3.404e-17
21277.15 3.31e-17
21523.53 3.1965e-17
21722.67 3.1086e-17
21923.68 3.0232e-17
22075.64 2.9596e-17
22279.91 2.8796e-17
22486.07 2.7988e-17
22694.12 2.7236e-17
22904.12 2.6477e-17
23116.03 2.5762e-17
23276.27 2.5229e-17
23491.66 2.4537e-17
23709.01 2.3871e-17
23873.37 2.3369e-17
24094.25 2.2745e-17
24317.2 2.2116e-17
24485.75 2.1672e-17
24712.32 2.1083e-17
24883.6 2.0649e-17
25113.86 2.0098e-17
25287.93 1.9682e-17
25521.93 1.916e-17
25698.82 1.877e-17
25876.97 1.8386e-17
26116.42 1.7901e-17
26297.44 1.7534e-17
26479.71 1.7187e-17
26724.74 1.673e-17
26910.0 1.639e-17
27096.52 1.6071e-17
27284.33 1.5749e-17
27473.47 1.5433e-17
27727.66 1.5033e-17
27919.88 1.473e-17
28113.39 1.4445e-17
28308.28 1.4163e-17
28504.49 1.3878e-17
28702.09 1.3614e-17
28901.03 1.3349e-17
29101.38 1.3083e-17
29303.09 1.2837e-17
29506.23 1.2588e-17
29710.74 1.2342e-17
29916.7 1.211e-17
30124.06 1.1877e-17
30332.85 1.1649e-17
30472.89 1.1504e-17
30684.1 1.1286e-17
30896.81 1.1068e-17
31110.96 1.0865e-17
31326.63 1.066e-17
31471.22 1.0523e-17
31689.35 1.0331e-17
31909.03 1.014e-17
32130.19 9.9477e-18
32278.53 9.8288e-18
32502.25 9.6496e-18
32727.53 9.469e-18
32878.62 9.3557e-18
33106.51 9.1879e-18
33336.01 9.019e-18
33489.87 8.9102e-18
33722.0 8.7532e-18
33877.68 8.6479e-18
34112.49 8.4907e-18
34269.93 8.3929e-18
34507.5 8.2453e-18
34666.77 8.1464e-18
34907.09 8.0043e-18
35068.2 7.9123e-18
35311.26 7.7736e-18
35474.28 7.6812e-18
35720.16 7.5524e-18
35885.06 7.4659e-18
36133.79 7.3356e-18
36300.56 7.2537e-18
36468.14 7.173e-18
36720.91 7.0514e-18
36890.39 6.9698e-18
37060.7 6.8943e-18
37317.57 6.7808e-18
37489.81 6.7046e-18
37662.88 6.6292e-18
37923.93 6.5232e-18
38098.97 6.4521e-18
38274.86 6.3807e-18
38540.14 6.2782e-18
38718.07 6.2118e-18
38896.77 6.1452e-18
39076.3 6.0782e-18
39256.65 6.0142e-18
39528.79 5.921e-18
39711.23 5.8585e-18
39894.56 5.7958e-18
40078.69 5.7368e-18
40263.67 5.6786e-18
40542.79 5.5909e-18
40729.92 5.532e-18
40917.9 5.4777e-18
41106.76 5.4232e-18
41296.53 5.3684e-18
41487.13 5.3134e-18
41678.61 5.2613e-18
41871.03 5.2103e-18
42064.28 5.1591e-18
42258.42 5.1077e-18
42453.51 5.0577e-18
42747.76 4.9862e-18
42945.07 4.9382e-18
43143.32 4.89e-18
43342.45 4.844e-18
43542.5 4.7994e-18
43743.51 4.7546e-18
43945.41 4.7096e-18
44148.24 4.6654e-18
44250.0 4.6446e-18
44454.28 4.6028e-18
44659.46 4.5609e-18
44865.58 4.5187e-18
45072.71 4.4781e-18
45280.74 4.4391e-18
45489.73 4.4e-18
45699.69 4.3606e-18
45910.66 4.3217e-18
46122.56 4.2853e-18
46335.44 4.2488e-18
46549.35 4.212e-18
46656.65 4.1936e-18
46871.99 4.1578e-18
47088.32 4.1238e-18
47305.71 4.0896e-18
47524.05 4.0553e-18
47743.39 4.0211e-18
47853.5 4.0052e-18
48074.36 3.9735e-18
48296.25 3.9415e-18
48519.16 3.9095e-18
48743.15 3.878e-18
48855.5 3.8633e-18
49081.0 3.8336e-18
49307.53 3.8038e-18
49535.16 3.7739e-18
49649.34 3.7589e-18
49878.5 3.7313e-18
50108.76 3.7036e-18
50340.03 3.6758e-18
50456.07 3.6619e-18
50688.95 3.6344e-18
50805.79 3.6216e-18
50922.96 3.6087e-18
51040.34 3.5959e-18
51157.99 3.583e-18
51275.91 3.57e-18
51394.11 3.5571e-18
51512.58 3.5441e-18
51631.37 3.5311e-18
51750.39 3.5189e-18
51869.68 3.507e-18
51989.24 3.4951e-18
52109.08 3.4831e-18
52229.19 3.4711e-18
52349.58 3.4591e-18
52470.31 3.4471e-18
52591.26 3.435e-18
52712.49 3.423e-18
52833.99 3.412e-18
52955.78 3.401e-18
53077.84 3.3899e-18
53200.25 3.3787e-18
53322.88 3.3676e-18
53445.79 3.3564e-18
53568.99 3.3453e-18
53692.47 3.334e-18
53816.24 3.3234e-18
53940.29 3.3132e-18
54064.68 3.3029e-18
54189.31 3.2926e-18
54314.22 3.2823e-18
54439.41 3.272e-18
54564.9 3.2617e-18
54690.68 3.2513e-18
54816.74 3.2409e-18
54943.16 3.2314e-18
55069.81 3.222e-18
55196.75 3.2125e-18
55323.98 3.203e-18
55451.5 3.1934e-18
55579.32 3.1839e-18
55707.5 3.1743e-18
55835.91 3.1647e-18
55964.62 3.1555e-18
56093.62 3.1468e-18
56222.92 3.138e-18
56352.52 3.1293e-18
56482.41 3.1205e-18
56612.67 3.1117e-18
56743.17 3.1029e-18
56873.96 3.0941e-18
57005.06 3.0853e-18
57136.46 3.0771e-18
57268.16 3.0691e-18
57400.24 3.0611e-18
57532.55 3.053e-18
57665.17 3.045e-18
57798.09 3.0369e-18
57931.32 3.0288e-18
58064.85 3.0207e-18
58198.7 3.0127e-18
58332.91 3.0054e-18
58467.37 2.9981e-18
58602.14 2.9907e-18
58737.23 2.9834e-18
58872.62 2.976e-18
59008.32 2.9686e-18
59144.34 2.9612e-18
59280.74 2.9538e-18
59417.39 2.9468e-18
59554.35 2.9401e-18
59691.62 2.9334e-18
59829.22 2.9267e-18
59967.13 2.92e-18
60105.42 2.9133e-18
60243.97 2.9066e-18
60382.84 2.8998e-18
60522.03 2.8931e-18
60661.53 2.887e-18
60801.36 2.881e-18
60941.51 2.8749e-18
61082.05 2.8689e-18
61222.85 2.8628e-18
61363.97 2.8567e-18
61505.43 2.8506e-18
61647.2 2.8445e-18
61789.3 2.8386e-18
61931.79 2.8332e-18
62074.55 2.8278e-18
62217.64 2.8223e-18
62361.06 2.8169e-18
62504.8 2.8114e-18
62648.88 2.806e-18
62793.29 2.8005e-18
62938.1 2.795e-18
63083.18 2.79e-18
63228.59 2.7852e-18
63374.34 2.7803e-18
63520.42 2.7755e-18
63666.84 2.7706e-18
63813.67 2.7658e-18
63960.76 2.7609e-18
64108.19 2.756e-18
64255.97 2.7512e-18
64404.08 2.747e-18
64552.54 2.7427e-18
64701.34 2.7384e-18
64850.55 2.7342e-18
65000.03 2.7299e-18
65149.86 2.7256e-18
65300.04 2.7213e-18
65450.56 2.717e-18
65601.43 2.7131e-18
65752.64 2.7094e-18
65904.28 2.7057e-18
66056.19 2.702e-18
66208.46 2.6983e-18
66361.08 2.6946e-18
66514.04 2.6909e-18
66667.36 2.6871e-18
66821.11 2.6834e-18
66975.13 2.6803e-18
67129.52 2.6771e-18
67284.26 2.674e-18
67439.35 2.6709e-18
67594.8 2.6677e-18
67750.61 2.6646e-18
67906.85 2.6614e-18
68063.39 2.6583e-18
68220.28 2.6553e-18
68377.53 2.6527e-18
68535.15 2.6502e-18
68693.13 2.6476e-18
68851.54 2.645e-18
69010.25 2.6424e-18
69169.32 2.6398e-18
69328.76 2.6372e-18
69488.57 2.6346e-18
69648.75 2.6324e-18
69809.29 2.6304e-18
69970.29 2.6283e-18
70131.57 2.6263e-18
70293.23 2.6243e-18
70455.26 2.6222e-18
70617.67 2.6202e-18
70780.44 2.6181e-18
70943.68 2.6162e-18
71107.2 2.6147e-18
71271.11 2.6132e-18
71435.4 2.6117e-18
71600.06 2.6102e-18
71765.1 2.6087e-18
71930.53 2.6072e-18
72096.41 2.6057e-18
72262.6 2.6042e-18
72429.17 2.603e-18
72596.12 2.6021e-18
72763.46 2.6011e-18
72931.19 2.6002e-18
73099.3 2.5992e-18
73267.88 2.5983e-18
73436.77 2.5973e-18
73606.05 2.5964e-18
73775.72 2.5954e-18
73945.77 2.595e-18
74116.22 2.5946e-18
74287.15 2.5942e-18
74458.38 2.5938e-18
74630.01 2.5934e-18
74802.04 2.593e-18
74974.46 2.5926e-18
75147.29 2.5922e-18
75320.51 2.592e-18
75494.21 2.5922e-18
75668.23 2.5923e-18
75842.65 2.5925e-18
76017.47 2.5926e-18
76192.7 2.5928e-18
76368.33 2.593e-18
76544.44 2.5931e-18
76720.88 2.5933e-18
76897.73 2.5939e-18
77074.99 2.5946e-18
77252.65 2.5953e-18
77430.72 2.596e-18
77609.21 2.5967e-18
77788.19 2.5975e-18
77967.5 2.5982e-18
78147.22 2.5989e-18
78327.35 2.5998e-18
78507.9 2.601e-18
78688.87 2.6023e-18
78870.25 2.6036e-18
79052.14 2.6049e-18
79234.36 2.6063e-18
79417.0 2.6076e-18
79600.06 2.6089e-18
79783.55 2.6102e-18
79967.45 2.6118e-18
80151.87 2.6137e-18
80336.62 2.6156e-18
80521.81 2.6175e-18
80707.41 2.6194e-18
87638.37 1.5899e-18
91861.68 1.5016e-18
92464.98 1.536e-18
93671.65 1.5408e-18
94274.94 1.5621e-18
94878.32 1.876e-18
96688.3 2.2522e-18
97291.58 1.6484e-18
98498.26 1.1113e-18
99101.56 1.2039e-18
99704.94 1.3405e-18
100308.23 1.1173e-18
102118.19 1.1292e-18
102721.49 1.7979e-18
103324.87 1.5523e-18
103928.16 1.5478e-18
104531.45 3.7097e-18
105134.83 5.1556e-18
105738.13 2.2884e-18
106341.52 1.5705e-18
106944.8 1.4448e-18
107548.09 9.8453e-19
108151.49 1.4894e-18
108754.77 1.3684e-18
109358.06 1.639e-18
109961.45 1.7934e-18
110564.74 1.6391e-18
111168.03 1.4018e-18
111771.41 1.4565e-18
112374.7 2.287e-18
112978.09 1.4407e-18
113581.38 1.1738e-18
114184.67 1.3324e-18
114788.06 1.46e-18
115391.34 1.7432e-18
115994.64 1.6279e-18
116598.02 1.8695e-18
117201.31 1.4534e-18
117804.59 1.6219e-18
118407.98 1.7782e-18
119011.28 1.336e-18
119614.67 1.7222e-18
120217.96 2.1811e-18
120821.24 2.3585e-18
121424.64 2.1938e-18
122027.92 2.1038e-18
122631.22 2.08e-18
123234.59 2.5351e-18
123837.89 2.6811e-18
124441.18 2.2327e-18
125044.56 2.0098e-18
125647.85 2.7318e-18
126251.24 1.9259e-18
126854.53 2.257e-18
127457.82 2.3624e-18
128061.21 2.9179e-18
128664.49 2.8628e-18
129267.79 2.3286e-18
129871.18 2.0154e-18
130474.46 2.2018e-18
131077.74 2.3917e-18
131681.14 2.3544e-18
132284.42 2.0021e-18
132887.71 2.5053e-18
133491.1 2.4569e-18
134094.39 2.4389e-18
134697.79 2.4905e-18
135301.07 2.7953e-18
135904.36 2.7141e-18
136507.75 2.3547e-18
137111.04 2.3173e-18
137714.32 2.587e-18
138317.72 2.719e-18
138921.0 2.3e-18
139524.29 2.7245e-18
140127.68 2.6813e-18
140730.97 2.5421e-18
141334.36 2.6745e-18
141937.65 3.5887e-18
142540.93 2.9777e-18
143144.33 2.2218e-18
143747.62 2.9865e-18
144350.9 2.0628e-18
145409.84 2.9564e-18
146254.54 3.1036e-18
147099.22 2.5664e-18
147943.9 2.2051e-18
148788.49 2.6891e-18
149633.17 2.9034e-18
150477.85 2.8334e-18
151322.44 2.8241e-18
152167.12 3.0513e-18
153011.8 2.3057e-18
153856.39 2.522e-18
154701.07 3.2022e-18
155545.76 6.7386e-18
156390.35 4.231e-18
157235.03 2.6627e-18
158079.71 2.5277e-18
158924.29 2.641e-18
159768.98 2.5628e-18
160613.66 2.6054e-18
161458.34 2.4444e-18
162302.93 3.2946e-18
163147.63 2.5815e-18
163992.29 2.8595e-18
164836.9 2.6573e-18
165681.56 2.3328e-18
166526.24 1.8199e-18
167370.85 2.6432e-18
168215.51 2.7297e-18
169060.21 3.0484e-18
169904.78 3.2649e-18
170749.48 2.9435e-18
171594.16 2.9977e-18
172438.73 3.7229e-18
173283.43 2.6765e-18
174128.11 3.3818e-18
174972.79 2.9844e-18
175817.37 3.5499e-18
176662.07 3.3111e-18
177506.74 3.3319e-18
178351.34 3.4505e-18
179196.02 3.2641e-18
180040.7 3.1917e-18
180885.29 2.6866e-18
181729.95 3.283e-18
182574.65 3.3806e-18
183419.24 2.5502e-18
184263.92 2.7673e-18
185108.6 2.4947e-18
185953.17 2.423e-18
186797.87 4.4822e-18
187642.56 4.2719e-18
188487.25 3.0123e-18
189331.82 2.7564e-18
190176.51 2.6321e-18
191021.18 3.0279e-18
191865.78 2.967e-18
192710.46 2.8478e-18
193555.14 2.6244e-18
194399.73 3.2685e-18
195244.43 2.6352e-18
196089.09 2.7524e-18
196933.68 3.7178e-18
197778.36 2.0713e-18
198623.04 1.9991e-18
199467.65 3.1672e-18
200312.31 3.0765e-18
201157.01 3.0316e-18
202001.69 2.9024e-18
202846.26 3.5549e-18
203690.96 2.3908e-18
205380.23 2.9777e-18
207069.59 2.6909e-18
208758.87 2.7348e-18
210448.12 2.8437e-18
212137.49 2.6801e-18
213826.75 2.6676e-18
215516.13 2.5091e-18
217205.4 2.2294e-18
218894.67 2.4232e-18
220584.05 2.5699e-18
222273.31 2.7787e-18
223962.57 2.2075e-18
225651.93 2.7694e-18
227341.21 2.4954e-18
229030.58 2.5876e-18
230719.84 2.4428e-18
232409.11 2.6214e-18
234098.49 3.0015e-18
235787.76 2.8223e-18
237477.03 2.7152e-18
239166.37 2.7723e-18
240855.66 2.8016e-18
242545.02 2.8381e-18
244234.29 2.7856e-18
245923.56 2.7118e-18
247612.93 2.6188e-18
249302.2 2.9405e-18
250991.47 2.9622e-18
252680.85 3.0157e-18
254370.12 3.2548e-18
256059.46 3.1048e-18
257748.73 3.457e-18
259438.0 3.8218e-18
261127.38 3.3383e-18
262816.64 3.3439e-18
264505.91 3.3533e-18
266195.27 3.2675e-18
267884.54 3.1879e-18
269573.9 3.0974e-18
271263.17 3.1057e-18
272952.47 3.1324e-18
274641.83 3.1839e-18
276331.07 3.1721e-18
278020.34 3.2468e-18
279709.73 3.2755e-18
281399.0 3.1702e-18
283088.36 2.7881e-18
284777.63 3.1522e-18
286466.9 3.274e-18
288156.26 3.2661e-18
289845.53 3.2717e-18
291534.8 3.2829e-18
293224.16 3.2536e-18
294913.43 3.0643e-18
296602.79 3.0598e-18
298292.09 3.3126e-18
299981.36 3.1908e-18
301670.72 3.0175e-18
303359.99 3.1101e-18
305049.26 3.1239e-18
306738.62 3.0814e-18
308427.89 3.1081e-18
310117.25 2.868e-18
311806.52 2.9673e-18
313495.79 2.8659e-18
315185.15 3.3448e-18
316874.45 3.2651e-18
318563.72 2.844e-18
320253.08 3.0399e-18
321942.32 3.2117e-18
323631.71 3.051e-18
325320.98 3.1916e-18
327010.25 3.5522e-18
328699.61 3.3147e-18
330388.88 2.9242e-18
332078.14 3.1513e-18
333767.54 3.4958e-18
335456.81 4.0222e-18
337146.14 3.522e-18
338835.4 3.2042e-18
340524.7 3.1158e-18
342214.04 3.6061e-18
343903.3 3.617e-18
345592.57 3.6757e-18
347281.96 4.7801e-18
348971.2 4.3911e-18
