# col1 col2
# An Atlas of Galaxy Spectral Energy Distributions from the Ultraviolet to the Mid-Infrared
# Brown et al. (2014)
# http://dx.doi.org/10.5072/03/529D3551F0117
# 
# Column 1 : Restframe Wavelength (Angstrom)
# Column 2 : Flux per unit wavelength (ergs/s/cm^2/Angstrom)
# Column 3 : Observed wavelength (Angstrom)
# Column 4 : Source (0 = model, 1 = Optical Spectrum, 2 = Akari, 3 = Spitzer IRS)
# 
100.0 2.7026e-25
102.1 4.2052e-25
104.0 5.9264e-25
105.93 8.5662e-25
107.9 1.2525e-24
109.9 2.0691e-24
114.03 3.9791e-24
118.04 7.1251e-24
121.06 2.3109e-23
125.03 3.8e-23
127.06 4.795e-23
127.94 5.4424e-23
130.92 7.4437e-23
132.13 8.9906e-23
133.97 1.0884e-22
137.09 1.6474e-22
139.96 2.2222e-22
142.89 5.1143e-22
146.9 1.21e-21
151.01 1.5805e-21
154.89 2.2222e-21
158.86 3.0046e-21
162.19 3.7393e-21
165.96 5.0094e-21
169.83 6.6037e-21
172.99 7.3925e-21
177.02 1.0563e-20
179.89 1.2817e-20
181.98 1.4548e-20
185.79 1.8655e-20
190.99 2.5165e-20
194.09 3.0115e-20
198.16 3.7652e-20
201.84 4.7075e-20
205.12 5.5181e-20
209.9 6.9309e-20
215.78 9.6115e-20
219.79 1.1662e-19
222.85 1.3267e-19
226.99 1.6099e-19
230.15 2.3757e-19
233.89 4.2344e-19
239.89 6.0227e-19
246.04 7.1745e-19
251.78 9.5673e-19
257.05 1.049e-18
260.02 1.27e-18
264.25 1.9399e-18
269.16 2.3757e-18
274.17 2.8496e-18
279.26 2.8562e-18
283.8 4.0067e-18
289.74 4.9635e-18
295.81 5.3801e-18
301.31 5.3677e-18
308.33 7.191e-18
317.7 9.5453e-18
328.11 1.2468e-17
338.08 1.475e-17
348.35 1.721e-17
357.28 2.7026e-17
365.61 4.6536e-17
374.98 5.3554e-17
384.6 5.1261e-17
395.38 8.5073e-17
404.59 1.1907e-16
414.01 1.339e-16
421.71 1.3671e-16
429.55 1.4481e-16
440.57 1.9045e-16
450.83 2.1716e-16
460.27 2.1419e-16
469.91 2.4143e-16
479.75 2.9566e-16
489.79 2.8041e-16
500.05 3.705e-16
505.84 3.4418e-16
511.7 5.5308e-16
520.01 5.6336e-16
529.68 5.6596e-16
539.53 5.1143e-16
549.56 5.343e-16
559.78 7.3416e-16
570.18 8.6455e-16
579.45 9.0113e-16
590.22 9.7227e-16
599.81 8.8265e-16
609.56 8.9493e-16
619.46 1.1852e-15
629.53 1.177e-15
639.76 1.3514e-15
650.15 1.3639e-15
657.68 1.3085e-15
665.29 1.5059e-15
674.55 1.6436e-15
685.51 1.4886e-15
695.05 1.7733e-15
704.72 1.5198e-15
716.17 1.976e-15
726.13 2.0644e-15
734.54 2.1369e-15
744.76 2.1468e-15
755.12 2.2019e-15
765.62 2.0502e-15
774.49 2.3431e-15
785.26 2.2376e-15
794.35 2.4535e-15
805.4 2.581e-15
814.73 2.6594e-15
824.16 2.772e-15
835.63 2.3056e-15
845.31 2.8562e-15
855.09 2.8826e-15
865.0 3.0464e-15
875.01 3.1246e-15
885.14 3.1973e-15
895.39 3.2718e-15
905.76 3.2794e-15
914.14 3.2493e-15
924.73 7.5299e-15
935.44 1.21e-14
944.09 1.6896e-14
955.02 2.0267e-14
966.08 2.2531e-14
975.02 8.8877e-15
984.04 1.9133e-14
995.44 1.8914e-14
1004.65 2.4087e-14
1013.94 2.4592e-14
1025.68 1.636e-14
1035.18 2.1716e-14
1044.75 3.0959e-14
1054.42 3.0324e-14
1064.18 2.5989e-14
1074.02 2.9093e-14
1083.96 2.5456e-14
1093.99 3.0534e-14
1104.11 2.9634e-14
1114.33 2.9227e-14
1124.64 2.6351e-14
1135.05 3.1462e-14
1145.55 2.9908e-14
1156.15 3.0675e-14
1164.16 3.0817e-14
1174.94 2.1968e-14
1185.81 3.0115e-14
1194.03 2.5223e-14
1205.07 2.1517e-14
1216.22 1.6857e-14
1224.66 2.5049e-14
1235.99 3.139e-14
1244.55 3.3021e-14
1256.07 3.2344e-14
1264.78 3.0605e-14
1273.54 3.522e-14
1285.33 3.629e-14
1294.24 3.1246e-14
1306.21 3.1535e-14
1315.27 3.6374e-14
1324.38 3.5139e-14
1333.56 3.2869e-14
1345.9 3.629e-14
1355.23 3.5546e-14
1364.63 3.3097e-14
1374.09 3.3635e-14
1383.61 3.379e-14
1396.41 2.7214e-14
1406.09 2.7151e-14
1415.84 3.2269e-14
1425.65 3.1973e-14
1435.53 3.2869e-14
1442.16 3.379e-14
1445.49 3.3946e-14
1455.51 3.3097e-14
1465.59 3.1462e-14
1475.75 3.1753e-14
1485.98 3.2195e-14
1496.28 3.2269e-14
1506.66 3.0888e-14
1513.61 2.8562e-14
1517.1 2.9839e-14
1524.1 2.943e-14
1534.67 2.5929e-14
1545.3 2.5049e-14
1556.02 2.4705e-14
1566.8 2.6779e-14
1574.03 2.8431e-14
1584.94 2.9295e-14
1595.93 2.9634e-14
1603.3 2.9093e-14
1614.41 2.8959e-14
1625.6 2.8365e-14
1636.87 2.9771e-14
1644.42 2.9908e-14
1655.82 2.9093e-14
1663.47 3.0464e-14
1671.14 2.8235e-14
1678.86 3.1246e-14
1686.61 3.1462e-14
1694.39 3.0185e-14
1706.14 2.943e-14
1714.01 2.8041e-14
1725.89 2.7784e-14
1733.86 2.9295e-14
1745.88 2.8826e-14
1753.94 2.9771e-14
1766.09 2.8562e-14
1774.25 2.8365e-14
1786.54 2.8959e-14
1794.79 2.9839e-14
1803.07 2.9977e-14
1815.57 2.7976e-14
1823.95 2.8562e-14
1836.6 2.7976e-14
1845.07 2.6229e-14
1853.59 2.629e-14
1866.44 2.6779e-14
1875.05 2.8235e-14
1883.71 2.6169e-14
1896.77 2.5165e-14
1905.52 2.6779e-14
1914.32 2.5691e-14
1923.15 2.4934e-14
1936.48 2.6229e-14
1945.42 2.684e-14
1954.4 2.4934e-14
1967.95 2.684e-14
1977.03 2.7656e-14
1986.16 2.6351e-14
1995.33 2.5751e-14
2004.54 2.6594e-14
2013.79 2.6109e-14
2023.08 2.7026e-14
2037.11 2.5515e-14
2046.51 2.5989e-14
2055.96 2.3702e-14
2065.45 2.4592e-14
2074.98 2.6717e-14
2079.76 2.5165e-14
2084.56 2.6049e-14
2094.18 2.4876e-14
2103.85 2.5339e-14
2113.56 2.5573e-14
2123.31 2.5751e-14
2133.11 2.4934e-14
2142.96 2.4705e-14
2152.85 2.5515e-14
2162.79 2.4934e-14
2172.77 2.4876e-14
2182.8 2.431e-14
2192.87 2.5049e-14
2203.0 2.4705e-14
2213.16 2.3977e-14
2223.38 2.3485e-14
2233.64 2.4087e-14
2243.95 2.3593e-14
2254.31 2.3003e-14
2264.72 2.3384e-14
2275.17 2.3558e-14
2285.67 2.3678e-14
2296.22 2.2571e-14
2306.82 2.2739e-14
2317.47 2.2181e-14
2322.81 1.9235e-14
2333.53 2.1395e-14
2344.3 2.1258e-14
2355.12 2.1714e-14
2365.99 2.1036e-14
2376.92 2.1047e-14
2382.4 2.0291e-14
2393.39 2.0966e-14
2404.44 2.0452e-14
2415.54 2.0605e-14
2426.69 2.095e-14
2432.28 2.0385e-14
2443.51 2.0918e-14
2454.79 2.069e-14
2466.12 2.0558e-14
2477.5 2.0147e-14
2483.21 2.0386e-14
2494.67 1.822e-14
2506.19 2.0313e-14
2511.97 1.9226e-14
2517.76 1.9953e-14
2523.56 1.9504e-14
2535.21 1.9515e-14
2546.91 1.9169e-14
2552.78 1.9621e-14
2564.57 1.9451e-14
2576.4 1.9915e-14
2582.34 1.9738e-14
2594.26 1.9613e-14
2606.24 1.9265e-14
2612.24 1.9094e-14
2624.3 1.9281e-14
2636.41 1.9337e-14
2642.49 1.9792e-14
2654.69 1.9758e-14
2666.94 1.8966e-14
2673.09 1.9236e-14
2685.43 1.9202e-14
2697.82 1.8733e-14
2704.04 1.8781e-14
2716.53 1.8449e-14
2722.79 1.8454e-14
2735.36 1.8679e-14
2747.98 1.7807e-14
2754.32 1.7812e-14
2767.03 1.7946e-14
2773.41 1.8285e-14
2786.21 1.8045e-14
2792.63 1.6576e-14
2805.52 1.7129e-14
2811.99 1.8024e-14
2824.97 1.8035e-14
2838.01 1.7473e-14
2844.55 1.7358e-14
2857.68 1.7249e-14
2864.27 1.7615e-14
2877.49 1.7424e-14
2884.12 1.7429e-14
2897.44 1.728e-14
2910.81 1.7531e-14
2930.99 1.7266e-14
2951.3 1.6967e-14
2971.76 1.6943e-14
2992.36 1.6765e-14
3013.1 1.6665e-14
3027.01 1.6561e-14
3047.99 1.6424e-14
3069.12 1.6289e-14
3090.39 1.6118e-14
3111.81 1.6023e-14
3133.39 1.5782e-14
3147.85 1.5719e-14
3169.67 1.5519e-14
3191.64 1.5146e-14
3206.37 1.519e-14
3228.6 1.4962e-14
3250.98 1.5012e-14
3273.51 1.4958e-14
3288.62 1.4831e-14
3311.42 1.471e-14
3319.05 1.5057e-14
3326.7 1.5202e-14
3334.37 1.5102e-14
3342.06 1.4494e-14
3349.76 1.5043e-14
3357.48 1.4338e-14
3365.22 1.4343e-14
3372.98 1.4184e-14
3380.76 1.4287e-14
3388.55 1.4726e-14
3396.36 1.4663e-14
3404.19 1.4203e-14
3412.04 1.4175e-14
3419.9 1.4345e-14
3427.79 1.4482e-14
3435.69 1.4454e-14
3443.61 1.4033e-14
3451.55 1.4398e-14
3459.5 1.385e-14
3467.48 1.3823e-14
3475.47 1.3892e-14
3483.48 1.3643e-14
3491.52 1.4062e-14
3499.56 1.3747e-14
3507.63 1.3626e-14
3515.72 1.3475e-14
3523.82 1.3762e-14
3531.94 1.3641e-14
3540.09 1.3835e-14
3548.25 1.4033e-14
3556.43 1.3845e-14
3564.62 1.3882e-14
3572.84 1.3634e-14
3576.45 1.0673e-14
3579.15 1.2011e-14
3581.85 1.4032e-14
3584.55 9.6919e-15
3587.25 5.3385e-15
3589.95 1.0339e-14
3592.65 2.0512e-14
3595.35 1.8977e-14
3598.05 1.7929e-14
3600.75 1.1762e-14
3603.45 1.0891e-14
3606.15 1.3203e-14
3608.85 1.3598e-14
3611.55 1.4006e-14
3614.25 8.4153e-15
3616.95 1.7451e-14
3619.65 1.392e-14
3622.35 1.0959e-14
3625.05 1.5283e-14
3627.75 1.2835e-14
3630.45 1.4669e-14
3633.15 1.2887e-14
3635.85 1.3612e-14
3638.55 6.0086e-15
3641.25 5.9678e-15
3643.95 1.503e-14
3646.65 1.5072e-14
3649.35 1.6244e-14
3652.05 1.3652e-14
3654.75 1.106e-14
3657.45 1.3676e-14
3660.15 9.4117e-15
3662.85 1.4971e-14
3665.55 1.4357e-14
3668.25 1.5747e-14
3670.95 1.6917e-14
3673.65 1.5333e-14
3676.35 9.6088e-15
3679.05 1.6257e-14
3681.75 1.15e-14
3684.45 1.1252e-14
3687.15 1.3308e-14
3689.85 1.5117e-14
3692.55 1.0681e-14
3695.25 1.3628e-14
3697.95 1.0813e-14
3700.65 1.0081e-14
3703.35 1.1393e-14
3706.05 1.1437e-14
3708.75 1.1709e-14
3711.45 1.1561e-14
3714.15 1.7468e-14
3716.85 1.7824e-14
3719.55 2.6524e-14
3722.25 5.9804e-14
3724.95 8.984e-14
3727.65 1.133e-13
3730.35 9.5876e-14
3733.05 5.4216e-14
3735.75 2.9934e-14
3738.45 1.709e-14
3741.15 1.3662e-14
3743.85 1.0476e-14
3746.55 1.2949e-14
3749.25 1.3467e-14
3751.95 1.2829e-14
3754.65 1.1833e-14
3757.35 1.2354e-14
3760.05 1.4994e-14
3762.75 1.7307e-14
3765.45 1.5772e-14
3768.15 1.3986e-14
3770.85 1.2564e-14
3773.55 1.607e-14
3776.25 1.5206e-14
3778.95 1.395e-14
3781.65 1.5747e-14
3784.35 1.6519e-14
3787.05 1.7859e-14
3789.75 1.695e-14
3792.45 1.4679e-14
3795.15 1.5869e-14
3797.85 1.4151e-14
3800.55 1.3276e-14
3803.25 1.3676e-14
3805.95 1.418e-14
3808.65 1.3838e-14
3811.35 1.5734e-14
3814.05 1.5476e-14
3816.75 1.699e-14
3819.44 1.7052e-14
3822.14 1.6092e-14
3824.84 1.5638e-14
3827.54 1.8039e-14
3830.24 1.6547e-14
3832.94 1.4933e-14
3835.64 1.2061e-14
3838.34 1.171e-14
3841.04 1.5058e-14
3843.74 1.4249e-14
3846.44 1.3512e-14
3849.14 1.3631e-14
3851.84 1.366e-14
3854.54 1.6119e-14
3857.24 1.4921e-14
3859.94 1.5706e-14
3862.64 1.7335e-14
3865.34 1.9069e-14
3868.04 2.2786e-14
3870.74 2.0043e-14
3873.44 1.6871e-14
3876.14 1.7313e-14
3878.84 1.3378e-14
3881.54 1.3716e-14
3884.24 1.6465e-14
3886.94 1.8806e-14
3889.64 1.8068e-14
3892.34 1.7007e-14
3895.04 1.6981e-14
3897.74 1.6669e-14
3900.44 1.4651e-14
3903.14 1.5314e-14
3905.84 1.6763e-14
3908.54 1.6773e-14
3911.24 1.9317e-14
3913.94 1.8625e-14
3916.64 2.0746e-14
3919.34 1.7845e-14
3922.04 1.6311e-14
3924.74 1.4979e-14
3927.44 1.3388e-14
3930.14 1.3991e-14
3932.84 1.4513e-14
3935.54 1.3365e-14
3938.24 1.2513e-14
3940.94 1.4048e-14
3943.64 1.3245e-14
3946.34 1.4172e-14
3949.04 1.3475e-14
3951.74 1.7074e-14
3954.44 1.6447e-14
3957.14 1.5952e-14
3959.84 1.46e-14
3962.54 1.3717e-14
3965.24 1.6422e-14
3967.94 1.797e-14
3970.64 1.6479e-14
3973.34 1.7492e-14
3976.04 1.5274e-14
3978.74 1.4432e-14
3981.44 1.3513e-14
3984.14 1.5659e-14
3986.84 1.4352e-14
3989.54 1.4796e-14
3992.24 1.3369e-14
3994.94 1.4523e-14
3997.64 1.4242e-14
4000.34 1.5357e-14
4003.04 1.6271e-14
4005.74 1.4703e-14
4008.44 1.488e-14
4011.14 1.595e-14
4013.84 1.5369e-14
4016.54 1.6257e-14
4019.24 1.3436e-14
4021.94 1.6179e-14
4024.64 2.0828e-14
4027.34 1.8077e-14
4030.04 1.7342e-14
4032.74 2.0605e-14
4035.44 1.7015e-14
4038.14 1.6712e-14
4040.84 1.6103e-14
4043.54 1.6188e-14
4046.24 1.5277e-14
4048.94 1.7609e-14
4051.64 1.3509e-14
4054.34 1.5709e-14
4057.04 1.5866e-14
4059.74 1.2986e-14
4062.44 1.2022e-14
4065.14 1.4588e-14
4067.84 1.7217e-14
4070.54 1.5238e-14
4073.23 1.6303e-14
4075.93 1.4279e-14
4078.63 1.3298e-14
4081.33 1.5881e-14
4084.03 1.3344e-14
4086.73 1.3242e-14
4089.43 1.3749e-14
4092.13 1.2849e-14
4094.83 1.4294e-14
4097.53 1.7994e-14
4100.23 1.8326e-14
4102.93 1.9343e-14
4105.63 1.5005e-14
4108.33 1.3729e-14
4111.03 1.389e-14
4113.73 1.3063e-14
4116.43 1.5657e-14
4119.13 1.3404e-14
4121.83 1.5553e-14
4124.53 1.6836e-14
4127.23 1.2048e-14
4129.93 1.6596e-14
4132.63 1.4554e-14
4135.33 1.334e-14
4138.03 1.3037e-14
4140.73 1.5208e-14
4143.43 1.4884e-14
4146.13 1.1736e-14
4148.83 1.3818e-14
4151.53 1.4361e-14
4154.23 1.4638e-14
4156.93 1.4665e-14
4159.63 1.418e-14
4162.33 1.5827e-14
4165.03 1.2744e-14
4167.73 1.49e-14
4170.43 1.2055e-14
4173.13 1.4081e-14
4175.83 1.5033e-14
4178.53 1.4171e-14
4181.23 1.5557e-14
4183.93 1.2478e-14
4186.63 1.3168e-14
4189.33 1.3188e-14
4192.03 1.3741e-14
4194.73 1.2352e-14
4197.43 1.3128e-14
4200.13 1.4496e-14
4202.83 1.1823e-14
4205.53 1.2126e-14
4208.23 1.3024e-14
4210.93 1.3734e-14
4213.63 1.3495e-14
4216.33 1.3918e-14
4219.03 1.3661e-14
4221.73 1.4669e-14
4224.43 1.5127e-14
4227.13 1.4627e-14
4229.83 1.2582e-14
4232.53 1.3132e-14
4235.23 1.3162e-14
4237.93 1.2961e-14
4240.63 1.4482e-14
4243.33 1.3325e-14
4246.03 1.3457e-14
4248.73 1.2529e-14
4251.43 1.2565e-14
4254.13 1.3559e-14
4256.83 1.255e-14
4259.53 1.3966e-14
4262.23 1.3526e-14
4264.93 1.4066e-14
4267.63 1.2476e-14
4270.33 1.2144e-14
4273.03 1.1812e-14
4275.73 1.3619e-14
4278.43 1.3169e-14
4281.13 1.272e-14
4283.83 1.4083e-14
4286.53 1.1777e-14
4289.23 1.21e-14
4291.93 1.3025e-14
4294.63 1.4348e-14
4297.33 1.2226e-14
4300.03 1.3828e-14
4302.73 1.2876e-14
4305.43 1.2411e-14
4308.13 1.2927e-14
4310.83 1.2689e-14
4313.53 1.259e-14
4316.23 1.2829e-14
4318.93 1.1748e-14
4321.63 1.2547e-14
4324.32 1.2705e-14
4327.02 1.1932e-14
4329.72 1.3237e-14
4332.42 1.398e-14
4335.12 1.875e-14
4337.82 2.5066e-14
4340.52 2.6312e-14
4343.22 2.4062e-14
4345.92 1.5866e-14
4348.62 1.3307e-14
4351.32 1.1817e-14
4354.02 1.2719e-14
4356.72 1.3529e-14
4359.42 1.2285e-14
4362.12 1.2855e-14
4364.82 1.3511e-14
4367.52 1.2847e-14
4370.22 1.2952e-14
4372.92 1.2001e-14
4375.62 1.1293e-14
4378.32 1.0951e-14
4381.02 1.1988e-14
4383.72 1.1637e-14
4386.42 1.3084e-14
4389.12 1.1562e-14
4391.82 1.1996e-14
4394.52 1.2895e-14
4397.22 1.2363e-14
4399.92 1.3104e-14
4402.62 1.2675e-14
4405.32 1.3106e-14
4408.02 1.3358e-14
4410.72 1.2488e-14
4413.42 1.4531e-14
4416.12 1.3211e-14
4418.82 1.3043e-14
4421.52 1.3243e-14
4424.22 1.328e-14
4426.92 1.1472e-14
4429.62 1.2019e-14
4432.32 1.1909e-14
4435.02 1.2955e-14
4437.72 1.269e-14
4440.42 1.3112e-14
4443.12 1.1983e-14
4445.82 1.2242e-14
4448.52 1.2051e-14
4451.22 1.2072e-14
4453.92 1.2531e-14
4456.62 1.3243e-14
4459.32 1.3352e-14
4462.02 1.343e-14
4464.72 1.3352e-14
4467.42 1.2841e-14
4470.12 1.3594e-14
4472.82 1.3529e-14
4475.52 1.4391e-14
4478.22 1.3846e-14
4480.92 1.2965e-14
4483.62 1.1491e-14
4486.32 1.1671e-14
4489.02 1.2184e-14
4491.72 1.3151e-14
4494.42 1.2857e-14
4497.12 1.2026e-14
4499.82 1.3238e-14
4502.52 1.2645e-14
4505.22 1.3363e-14
4507.92 1.3714e-14
4510.62 1.2339e-14
4513.32 1.1828e-14
4516.02 1.2004e-14
4518.72 1.2408e-14
4521.42 1.2091e-14
4524.12 1.1962e-14
4526.82 1.1278e-14
4529.52 1.0827e-14
4532.22 1.0725e-14
4534.92 1.0598e-14
4537.62 1.1538e-14
4540.32 1.2322e-14
4543.02 1.2083e-14
4545.72 1.2821e-14
4548.42 1.2132e-14
4551.12 1.1853e-14
4553.82 1.2713e-14
4556.52 1.3349e-14
4559.22 1.2141e-14
4561.92 1.2437e-14
4564.62 1.1662e-14
4567.32 1.2562e-14
4570.02 1.3622e-14
4572.72 1.2384e-14
4575.41 1.3084e-14
4578.11 1.2042e-14
4580.81 1.1199e-14
4583.51 1.1745e-14
4586.21 1.1578e-14
4588.91 1.1997e-14
4591.61 1.1803e-14
4594.31 1.3161e-14
4597.01 1.2595e-14
4599.71 1.271e-14
4602.41 1.2858e-14
4605.11 1.2587e-14
4607.81 1.3556e-14
4610.51 1.6528e-14
4613.21 1.9334e-14
4615.91 1.8346e-14
4618.61 1.631e-14
4621.31 1.4326e-14
4624.01 1.2421e-14
4626.71 1.1193e-14
4629.41 1.2387e-14
4632.11 1.3472e-14
4634.81 1.3013e-14
4637.51 1.3058e-14
4640.21 1.1938e-14
4642.91 1.1088e-14
4645.61 1.2745e-14
4648.31 1.1398e-14
4651.01 1.2399e-14
4653.71 1.3273e-14
4656.41 1.3942e-14
4659.11 1.3161e-14
4661.81 1.271e-14
4664.51 1.2628e-14
4667.21 1.2945e-14
4669.91 1.3657e-14
4672.61 1.1675e-14
4675.31 1.2323e-14
4678.01 1.2615e-14
4680.71 1.1799e-14
4683.41 1.2395e-14
4686.11 1.1637e-14
4688.81 1.1602e-14
4691.51 1.2728e-14
4694.21 1.2755e-14
4696.91 1.2048e-14
4699.61 1.2392e-14
4702.31 1.1314e-14
4705.01 1.2415e-14
4707.71 1.1362e-14
4710.41 1.2227e-14
4713.11 1.3228e-14
4715.81 1.2361e-14
4718.51 1.2394e-14
4721.21 1.1756e-14
4723.91 1.1798e-14
4726.61 1.3513e-14
4729.31 1.13e-14
4732.01 1.1584e-14
4734.71 1.1951e-14
4737.41 1.1426e-14
4740.11 1.1969e-14
4742.81 1.1928e-14
4745.51 1.3619e-14
4748.21 1.21e-14
4750.91 1.2195e-14
4753.61 1.2302e-14
4756.31 1.2495e-14
4759.01 1.1502e-14
4761.71 1.2194e-14
4764.41 1.124e-14
4767.11 1.1912e-14
4769.81 1.234e-14
4772.51 1.2163e-14
4775.21 1.2566e-14
4777.91 1.5215e-14
4780.61 1.4977e-14
4783.31 1.3464e-14
4786.01 1.189e-14
4788.71 1.1967e-14
4791.41 1.2698e-14
4794.11 1.1567e-14
4796.81 1.2021e-14
4799.51 1.0942e-14
4802.21 1.214e-14
4804.91 1.2262e-14
4807.61 1.2516e-14
4810.31 1.2614e-14
4813.01 1.3277e-14
4815.71 1.1583e-14
4818.41 1.1381e-14
4821.11 1.1076e-14
4823.81 1.142e-14
4826.5 1.2652e-14
4829.2 1.1885e-14
4831.9 1.2161e-14
4834.6 1.0333e-14
4837.3 1.2359e-14
4840.0 1.2138e-14
4842.7 1.1163e-14
4845.4 1.2161e-14
4848.1 1.1094e-14
4850.8 1.3017e-14
4853.5 1.7669e-14
4856.2 2.8922e-14
4858.9 4.3602e-14
4861.6 4.9304e-14
4864.3 3.795e-14
4867.0 2.1948e-14
4869.7 1.3712e-14
4872.4 1.1396e-14
4875.1 1.1515e-14
4877.8 1.0858e-14
4880.5 1.2343e-14
4883.2 1.1538e-14
4885.9 1.1966e-14
4888.6 1.2135e-14
4891.3 1.1751e-14
4894.0 1.1669e-14
4896.7 1.1406e-14
4899.4 1.3208e-14
4902.1 1.1015e-14
4904.8 1.1716e-14
4907.5 1.1764e-14
4910.2 1.1532e-14
4912.9 1.0334e-14
4915.6 1.1264e-14
4918.3 1.1644e-14
4921.0 1.0748e-14
4923.7 1.1217e-14
4926.4 1.2875e-14
4929.1 1.2206e-14
4931.8 1.1547e-14
4934.5 1.1183e-14
4937.2 1.0728e-14
4939.9 1.1516e-14
4942.6 1.1271e-14
4945.3 1.2308e-14
4948.0 1.2607e-14
4950.7 1.4892e-14
4953.4 2.5084e-14
4956.1 4.0464e-14
4958.8 4.4058e-14
4961.5 3.8105e-14
4964.2 2.3108e-14
4966.9 1.514e-14
4969.6 1.1626e-14
4972.3 1.2666e-14
4975.0 1.1751e-14
4977.7 1.0947e-14
4980.4 1.2572e-14
4983.1 1.1314e-14
4985.8 1.2236e-14
4988.5 1.1982e-14
4991.2 1.1713e-14
4993.9 1.1469e-14
4996.6 1.6457e-14
4999.3 2.9538e-14
5002.0 6.1236e-14
5004.7 1.0365e-13
5007.4 1.1541e-13
5010.1 8.0072e-14
5012.8 4.0047e-14
5015.5 1.9136e-14
5018.2 1.3074e-14
5020.9 1.1796e-14
5023.6 1.0638e-14
5026.3 1.216e-14
5029.0 1.1894e-14
5031.7 1.2287e-14
5034.4 1.0395e-14
5037.1 1.1946e-14
5039.8 9.7097e-15
5042.5 1.1364e-14
5045.2 1.1535e-14
5047.9 1.1148e-14
5050.6 1.0461e-14
5053.3 1.0837e-14
5056.0 1.2031e-14
5058.7 1.1058e-14
5061.4 1.0098e-14
5064.1 1.0632e-14
5066.8 1.1826e-14
5069.5 1.1407e-14
5072.2 1.2565e-14
5074.9 1.0964e-14
5077.59 9.647e-15
5080.29 9.9953e-15
5082.99 1.0819e-14
5085.69 1.0934e-14
5088.39 1.0952e-14
5091.09 1.1521e-14
5093.79 1.0924e-14
5096.49 1.1554e-14
5099.19 1.1317e-14
5101.89 1.0624e-14
5104.59 1.1084e-14
5107.29 1.1886e-14
5109.99 1.082e-14
5112.69 1.1647e-14
5115.39 9.8393e-15
5118.09 1.1123e-14
5120.79 1.1013e-14
5123.49 1.0197e-14
5126.19 1.0446e-14
5128.89 1.1393e-14
5131.59 1.0483e-14
5134.29 9.659e-15
5136.99 9.535e-15
5139.69 1.0589e-14
5142.39 1.0347e-14
5145.09 1.0349e-14
5147.79 1.0043e-14
5150.49 1.0759e-14
5153.19 1.0018e-14
5155.89 1.0482e-14
5158.59 9.9698e-15
5161.29 1.1121e-14
5163.99 1.0224e-14
5166.69 9.2029e-15
5169.39 9.6872e-15
5172.09 9.2732e-15
5174.79 8.8795e-15
5177.49 1.0388e-14
5180.19 1.0974e-14
5182.89 1.0883e-14
5185.59 9.8814e-15
5188.29 1.0957e-14
5190.99 1.1261e-14
5193.69 1.1082e-14
5196.39 1.1889e-14
5199.09 1.276e-14
5201.79 1.2079e-14
5204.49 1.0935e-14
5207.19 1.0551e-14
5209.89 1.1687e-14
5212.59 1.1398e-14
5215.29 1.0868e-14
5217.99 1.0613e-14
5220.69 9.5574e-15
5223.39 1.01e-14
5226.09 9.9875e-15
5228.79 1.0443e-14
5231.49 9.1511e-15
5234.19 1.0111e-14
5236.89 1.1348e-14
5239.59 9.8365e-15
5242.29 1.142e-14
5244.99 1.1499e-14
5247.69 1.0823e-14
5250.39 1.1231e-14
5253.09 1.1355e-14
5255.79 1.0322e-14
5258.49 1.1413e-14
5261.19 1.1128e-14
5263.89 1.0601e-14
5266.59 1.0754e-14
5269.29 1.0403e-14
5271.99 1.1378e-14
5274.69 1.045e-14
5277.39 1.0757e-14
5280.09 1.1568e-14
5282.79 1.1015e-14
5285.49 1.1053e-14
5288.19 1.102e-14
5290.89 1.0782e-14
5293.59 1.0524e-14
5296.29 1.0404e-14
5298.99 1.0969e-14
5301.69 1.0249e-14
5304.39 1.0867e-14
5307.09 1.1669e-14
5309.79 1.0825e-14
5312.49 9.7401e-15
5315.19 1.104e-14
5317.89 1.0221e-14
5320.59 1.0489e-14
5323.29 1.072e-14
5325.99 1.1294e-14
5328.69 1.288e-14
5331.38 1.0615e-14
5334.08 9.5026e-15
5336.78 1.101e-14
5339.48 1.1206e-14
5342.18 1.0613e-14
5344.88 1.1174e-14
5347.58 1.1249e-14
5350.28 1.0982e-14
5352.98 1.0535e-14
5355.68 1.0078e-14
5358.38 1.0234e-14
5361.08 1.0788e-14
5363.78 1.1007e-14
5366.48 1.0593e-14
5369.18 1.1022e-14
5371.88 1.043e-14
5374.58 1.0002e-14
5377.28 1.0777e-14
5379.98 1.0866e-14
5382.68 1.056e-14
5385.38 9.9741e-15
5388.08 1.0396e-14
5390.78 1.0939e-14
5393.48 1.1116e-14
5396.18 1.1211e-14
5398.88 9.6524e-15
5401.58 9.267e-15
5404.28 9.046e-15
5406.98 9.3621e-15
5409.68 1.0813e-14
5412.38 1.0285e-14
5415.08 9.8869e-15
5417.78 1.0415e-14
5420.48 9.8445e-15
5423.18 1.1106e-14
5425.88 1.0882e-14
5428.58 9.773e-15
5431.28 9.8192e-15
5433.98 1.0211e-14
5436.68 1.1215e-14
5439.38 1.0344e-14
5442.08 1.0329e-14
5444.78 1.0306e-14
5447.48 1.1006e-14
5450.18 1.1049e-14
5452.88 9.7619e-15
5455.58 1.1164e-14
5458.28 9.8168e-15
5460.98 1.0744e-14
5463.68 1.0213e-14
5466.38 9.4269e-15
5469.08 9.7721e-15
5471.78 9.6122e-15
5474.48 1.0206e-14
5477.18 9.8752e-15
5479.88 1.0767e-14
5482.58 9.7532e-15
5485.28 1.2096e-14
5487.98 9.6144e-15
5490.68 1.0854e-14
5493.38 9.8286e-15
5496.08 1.1334e-14
5498.78 9.7665e-15
5501.48 9.936e-15
5504.18 1.0552e-14
5506.88 1.0115e-14
5509.58 1.059e-14
5512.28 1.1241e-14
5514.98 1.1069e-14
5517.68 1.0851e-14
5520.38 9.7476e-15
5523.08 1.0137e-14
5525.78 1.0241e-14
5528.48 1.1051e-14
5531.18 1.1073e-14
5533.88 1.0707e-14
5536.58 1.0489e-14
5539.28 1.1511e-14
5541.98 1.1177e-14
5544.68 1.1114e-14
5547.38 1.0219e-14
5550.08 1.0486e-14
5552.78 1.017e-14
5555.48 1.0382e-14
5558.18 1.0173e-14
5560.88 1.1293e-14
5563.58 1.1577e-14
5566.28 1.0924e-14
5568.98 1.0532e-14
5571.68 1.0038e-14
5574.38 1.0828e-14
5577.08 1.0778e-14
5579.78 1.0428e-14
5582.47 1.0615e-14
5585.17 1.0489e-14
5587.87 9.3308e-15
5590.57 9.4483e-15
5593.27 9.1189e-15
5595.97 9.9396e-15
5598.67 1.0141e-14
5601.37 9.7716e-15
5604.07 1.0222e-14
5606.77 1.0558e-14
5609.47 9.9434e-15
5612.17 9.5055e-15
5614.87 9.554e-15
5617.57 9.4475e-15
5620.27 9.5443e-15
5622.97 8.9381e-15
5625.67 8.7971e-15
5628.37 1.0343e-14
5631.07 9.58e-15
5633.77 9.7215e-15
5636.47 9.4518e-15
5639.17 9.2842e-15
5641.87 9.5929e-15
5644.57 9.6035e-15
5647.27 1.0113e-14
5649.97 9.8139e-15
5652.67 1.0316e-14
5655.37 1.0034e-14
5658.07 1.0338e-14
5660.77 1.0024e-14
5663.47 8.9704e-15
5666.17 8.9797e-15
5668.87 9.8649e-15
5671.57 1.1469e-14
5674.27 1.0189e-14
5676.97 9.6889e-15
5679.67 9.4962e-15
5682.37 9.0444e-15
5685.07 1.0513e-14
5687.77 1.0224e-14
5690.47 8.9372e-15
5693.17 1.0264e-14
5695.87 9.8153e-15
5698.57 1.0032e-14
5701.27 1.0096e-14
5703.97 9.606e-15
5706.67 9.9788e-15
5709.37 1.0093e-14
5712.07 9.8238e-15
5714.77 1.0176e-14
5717.47 1.0655e-14
5720.17 1.1045e-14
5722.87 1.0227e-14
5725.57 9.2817e-15
5728.27 8.5816e-15
5730.97 9.5405e-15
5733.67 8.6186e-15
5736.37 9.7792e-15
5739.07 9.6007e-15
5741.77 9.9384e-15
5744.47 9.6555e-15
5747.17 1.1274e-14
5749.87 1.0498e-14
5752.57 1.0661e-14
5755.27 9.1988e-15
5757.97 9.9736e-15
5760.67 9.2881e-15
5763.37 9.5603e-15
5766.07 1.0571e-14
5768.77 1.036e-14
5771.47 1.0496e-14
5774.17 1.0653e-14
5776.87 9.0967e-15
5779.57 1.0635e-14
5782.27 9.9535e-15
5784.97 9.7659e-15
5787.67 1.0929e-14
5790.37 1.0135e-14
5793.07 8.9796e-15
5795.77 9.9915e-15
5798.47 9.0598e-15
5801.17 1.1538e-14
5803.87 1.033e-14
5806.57 9.4536e-15
5809.27 9.8415e-15
5811.97 8.4633e-15
5814.67 9.7759e-15
5817.37 9.7027e-15
5820.07 9.03e-15
5822.77 1.0082e-14
5825.47 9.839e-15
5828.17 9.697e-15
5830.87 9.3377e-15
5833.56 8.8254e-15
5836.26 1.0655e-14
5838.96 1.0943e-14
5841.66 1.0983e-14
5844.36 9.5767e-15
5847.06 1.1022e-14
5849.76 9.9537e-15
5852.46 1.0089e-14
5855.16 9.4973e-15
5857.86 8.8284e-15
5860.56 9.7014e-15
5863.26 9.5325e-15
5865.96 1.0606e-14
5868.66 1.1416e-14
5871.36 1.3325e-14
5874.06 1.477e-14
5876.76 1.3344e-14
5879.46 1.227e-14
5882.16 1.0393e-14
5884.86 9.2436e-15
5887.56 9.7939e-15
5890.26 9.6539e-15
5892.96 9.1535e-15
5895.66 8.7926e-15
5898.36 9.0009e-15
5901.06 8.3047e-15
5903.76 9.7398e-15
5906.46 9.9836e-15
5909.16 9.116e-15
5911.86 9.1753e-15
5914.56 9.8837e-15
5917.26 1.0259e-14
5919.96 9.1305e-15
5922.66 9.4466e-15
5925.36 9.3628e-15
5928.06 9.1353e-15
5930.76 9.1483e-15
5933.46 8.1678e-15
5936.16 8.9711e-15
5938.86 9.6334e-15
5941.56 8.9826e-15
5944.26 8.1314e-15
5946.96 8.8822e-15
5949.66 9.3658e-15
5952.36 8.5191e-15
5955.06 9.8514e-15
5957.76 1.0143e-14
5960.46 9.8866e-15
5963.16 8.7918e-15
5965.86 9.5652e-15
5968.56 1.041e-14
5971.26 9.1289e-15
5973.96 9.7806e-15
5976.66 1.0207e-14
5979.36 9.3391e-15
5982.06 9.8274e-15
5984.76 9.5265e-15
5987.46 9.3246e-15
5990.16 9.6518e-15
5992.86 9.8768e-15
5995.56 9.92e-15
5998.26 1.007e-14
6000.96 9.3334e-15
6003.66 8.9915e-15
6006.36 8.8741e-15
6009.06 1.0022e-14
6011.76 9.5968e-15
6014.46 1.0287e-14
6017.16 9.3718e-15
6019.86 9.4959e-15
6022.56 9.82e-15
6025.26 8.8466e-15
6027.96 9.2725e-15
6030.66 9.5766e-15
6033.36 1.0003e-14
6036.06 9.882e-15
6038.76 9.7119e-15
6041.46 9.3958e-15
6044.16 8.9368e-15
6046.86 1.0005e-14
6049.56 9.5626e-15
6052.26 9.1817e-15
6054.96 9.4835e-15
6057.66 8.6643e-15
6060.36 9.2484e-15
6063.06 9.4859e-15
6065.76 9.9988e-15
6068.46 9.7612e-15
6071.16 9.3341e-15
6073.86 8.8558e-15
6076.56 9.6231e-15
6079.26 8.9604e-15
6081.96 8.3817e-15
6084.65 9.1656e-15
6087.35 9.0929e-15
6090.05 8.4589e-15
6092.75 9.9775e-15
6095.45 9.1176e-15
6098.15 9.4152e-15
6100.85 9.1683e-15
6103.55 1.0096e-14
6106.25 9.8193e-15
6108.95 9.6753e-15
6111.65 1.0283e-14
6114.35 9.8008e-15
6117.05 8.4277e-15
6119.75 8.984e-15
6122.45 8.0246e-15
6125.15 7.9449e-15
6127.85 7.5202e-15
6130.55 9.1726e-15
6133.25 9.4172e-15
6135.95 9.7448e-15
6138.65 8.2609e-15
6141.35 8.3694e-15
6144.05 9.4901e-15
6146.75 8.8563e-15
6149.45 1.0099e-14
6152.15 8.8171e-15
6154.85 8.7129e-15
6157.55 8.5589e-15
6160.25 9.4485e-15
6162.95 8.9551e-15
6165.65 8.7823e-15
6168.35 8.7359e-15
6171.05 9.0817e-15
6173.75 9.0934e-15
6176.45 8.8265e-15
6179.15 8.6549e-15
6181.85 8.8848e-15
6184.55 8.1222e-15
6187.25 9.8583e-15
6189.95 8.4792e-15
6192.65 8.6772e-15
6195.35 9.5338e-15
6198.05 9.338e-15
6200.75 9.0538e-15
6203.45 9.312e-15
6206.15 9.6637e-15
6208.85 8.3505e-15
6211.55 7.2096e-15
6214.25 9.0407e-15
6216.95 8.5131e-15
6219.65 9.6952e-15
6222.35 8.9465e-15
6225.05 9.4967e-15
6227.75 8.5438e-15
6230.45 9.3797e-15
6233.15 8.2674e-15
6235.85 8.7731e-15
6238.55 8.4395e-15
6241.25 9.4574e-15
6243.95 9.5746e-15
6246.65 9.1251e-15
6249.35 9.8107e-15
6252.05 8.9389e-15
6254.75 7.6243e-15
6257.45 8.0535e-15
6260.15 9.2848e-15
6262.85 1.0554e-14
6265.55 9.8931e-15
6268.25 8.9801e-15
6270.95 8.9058e-15
6273.65 8.6936e-15
6276.35 9.2523e-15
6279.05 9.0662e-15
6281.75 8.485e-15
6284.45 9.7225e-15
6287.15 9.5958e-15
6289.85 9.699e-15
6292.55 1.0558e-14
6295.25 1.2385e-14
6297.95 1.3876e-14
6300.65 1.3264e-14
6303.35 1.2122e-14
6306.05 1.0183e-14
6308.75 1.0056e-14
6311.45 9.6308e-15
6314.15 9.6505e-15
6316.85 1.0027e-14
6319.55 9.2198e-15
6322.25 8.879e-15
6324.95 9.4237e-15
6327.65 9.0579e-15
6330.35 1.0853e-14
6333.05 9.1147e-15
6335.74 8.1263e-15
6338.44 1.0136e-14
6341.14 9.3136e-15
6343.84 8.7491e-15
6346.54 9.0282e-15
6349.24 8.9506e-15
6351.94 9.1949e-15
6354.64 7.9679e-15
6357.34 1.0139e-14
6360.04 1.1018e-14
6362.74 1.1671e-14
6365.44 9.6213e-15
6368.14 1.0968e-14
6370.84 9.6918e-15
6373.54 9.3833e-15
6376.24 8.8945e-15
6378.94 9.5606e-15
6381.64 9.6615e-15
6384.34 8.0312e-15
6387.04 8.789e-15
6389.74 9.3437e-15
6392.44 8.9819e-15
6395.14 8.5685e-15
6397.84 9.0526e-15
6400.54 9.1906e-15
6403.24 9.0352e-15
6405.94 8.8901e-15
6408.64 8.727e-15
6411.34 8.4491e-15
6414.04 6.8695e-15
6416.74 8.1852e-15
6419.44 8.3337e-15
6422.14 9.1333e-15
6424.84 9.5484e-15
6427.54 7.4972e-15
6430.24 7.6247e-15
6432.94 7.7075e-15
6435.64 7.8495e-15
6438.34 8.4221e-15
6441.04 9.4164e-15
6443.74 9.7469e-15
6446.44 8.595e-15
6449.14 9.6841e-15
6451.84 1.0654e-14
6454.54 9.3665e-15
6457.24 8.7692e-15
6459.94 8.059e-15
6462.64 8.9108e-15
6465.34 9.2202e-15
6468.04 8.3792e-15
6470.74 9.6051e-15
6473.44 9.6011e-15
6476.14 8.8115e-15
6478.84 9.7996e-15
6481.54 9.7829e-15
6484.24 8.3807e-15
6486.94 8.8201e-15
6489.64 9.3595e-15
6492.34 9.8518e-15
6495.04 8.446e-15
6497.74 8.8386e-15
6500.44 8.457e-15
6503.14 8.5399e-15
6505.84 8.0467e-15
6508.54 9.6792e-15
6511.24 9.3683e-15
6513.94 9.2782e-15
6516.64 9.0384e-15
6519.34 9.1968e-15
6522.04 9.1105e-15
6524.74 8.526e-15
6527.44 9.9348e-15
6530.14 9.5331e-15
6532.84 9.658e-15
6535.54 9.8974e-15
6538.24 8.9541e-15
6540.94 1.2549e-14
6543.64 1.3766e-14
6546.34 1.6882e-14
6549.04 1.8021e-14
6551.74 1.9589e-14
6554.44 3.4699e-14
6557.14 7.3445e-14
6559.84 1.3196e-13
6562.54 1.4963e-13
6565.24 1.1234e-13
6567.94 5.2707e-14
6570.64 2.2836e-14
6573.34 1.5096e-14
6576.04 1.7312e-14
6578.74 2.3262e-14
6581.44 2.7808e-14
6584.14 2.7331e-14
6586.84 2.0673e-14
6589.53 1.4943e-14
6592.23 1.1263e-14
6594.93 1.0416e-14
6597.63 8.6991e-15
6600.33 8.0491e-15
6603.03 8.6361e-15
6605.73 8.9357e-15
6608.43 9.4001e-15
6611.13 8.648e-15
6613.83 8.6777e-15
6616.53 9.5647e-15
6619.23 9.5937e-15
6621.93 9.5048e-15
6624.63 8.778e-15
6627.33 8.404e-15
6630.03 9.3991e-15
6632.73 8.4028e-15
6635.43 7.96e-15
6638.13 9.6201e-15
6640.83 9.0295e-15
6643.53 8.2702e-15
6646.23 8.1428e-15
6648.93 8.4531e-15
6651.63 8.3729e-15
6654.33 8.5414e-15
6657.03 9.1311e-15
6659.73 8.4279e-15
6662.43 9.2141e-15
6665.13 9.2841e-15
6667.83 8.889e-15
6670.53 8.6117e-15
6673.23 8.6978e-15
6675.93 9.2381e-15
6678.63 1.0032e-14
6681.33 9.8964e-15
6684.03 8.5637e-15
6686.73 9.2597e-15
6689.43 8.7982e-15
6692.13 7.9497e-15
6694.83 6.9266e-15
6697.53 8.0609e-15
6700.23 9.723e-15
6702.93 8.9063e-15
6714.5 8.9319e-15
6729.98 8.8677e-15
6745.49 8.7433e-15
6761.05 8.7004e-15
6776.63 8.6977e-15
6792.25 8.5955e-15
6807.91 8.7727e-15
6823.6 8.7699e-15
6839.33 8.747e-15
6855.1 8.7443e-15
6870.9 8.4253e-15
6886.74 8.5792e-15
6902.62 8.5371e-15
6918.53 8.5738e-15
6934.48 8.4729e-15
6950.46 8.6675e-15
6966.49 8.5853e-15
6982.55 8.5038e-15
6998.64 8.56e-15
7014.78 8.4593e-15
7030.95 8.3213e-15
7047.15 8.6507e-15
7063.4 8.3928e-15
7079.68 8.4094e-15
7096.0 8.084e-15
7112.36 8.1561e-15
7128.76 8.0973e-15
7145.19 8.0204e-15
7161.66 8.0362e-15
7178.17 7.9233e-15
7194.72 7.409e-15
7211.3 7.7378e-15
7227.93 8.044e-15
7244.59 7.9676e-15
7261.29 7.8015e-15
7278.03 8.0359e-15
7294.81 7.8684e-15
7311.62 8.0304e-15
7328.48 8.1769e-15
7345.37 8.307e-15
7362.3 7.9486e-15
7379.28 8.2631e-15
7396.29 7.9249e-15
7413.34 8.2195e-15
7430.43 7.8649e-15
7447.56 8.0268e-15
7464.73 8.1921e-15
7481.93 8.0583e-15
7499.18 8e-15
7516.47 8.0898e-15
7533.8 8.1618e-15
7551.16 8.1589e-15
7568.57 8.0627e-15
7586.02 8.0413e-15
7603.5 7.9464e-15
7621.03 7.8708e-15
7638.6 7.7779e-15
7656.21 7.7751e-15
7673.86 7.1376e-15
7691.55 7.6453e-15
7709.28 7.1653e-15
7727.05 7.5697e-15
7744.87 7.6194e-15
7762.72 7.5121e-15
7780.61 7.188e-15
7798.55 7.3866e-15
7816.53 7.418e-15
7834.54 7.5706e-15
7852.61 7.5852e-15
7870.71 7.5824e-15
7888.85 7.4413e-15
7907.04 7.3364e-15
7925.27 7.1338e-15
7943.53 7.2137e-15
7961.85 7.261e-15
7980.2 7.2918e-15
7998.6 7.3565e-15
8017.03 7.2528e-15
8035.52 6.9557e-15
8054.04 7.1479e-15
8072.61 7.3285e-15
8091.21 7.0933e-15
8109.87 7.2058e-15
8128.56 7.1864e-15
8147.3 7.2002e-15
8166.09 7.1809e-15
8184.91 6.9026e-15
8203.78 6.681e-15
8222.69 7.0579e-15
8241.64 6.7376e-15
8260.64 7.134e-15
8279.69 7.1148e-15
8298.77 6.8706e-15
8317.9 6.8679e-15
8337.07 6.8494e-15
8356.3 6.8467e-15
8375.56 6.9391e-15
8394.87 6.6855e-15
8414.22 6.9656e-15
8433.62 6.7731e-15
8453.06 6.7083e-15
8472.55 6.7676e-15
8492.08 6.859e-15
8511.65 6.3545e-15
8531.27 6.8534e-15
8550.94 4.3725e-15
8570.65 6.7695e-15
8590.41 6.6892e-15
8610.21 6.4595e-15
8630.06 6.6377e-15
8649.95 6.7118e-15
8669.9 4.9392e-15
8689.88 6.302e-15
8709.91 6.4759e-15
8729.99 6.7471e-15
8750.12 6.3964e-15
8770.29 6.5577e-15
8790.5 6.6768e-15
8810.77 6.674e-15
8831.08 6.5344e-15
8851.44 6.5016e-15
8871.84 5.6472e-15
8892.29 6.2755e-15
8912.79 6.419e-15
8933.34 6.372e-15
8953.93 6.21e-15
8974.57 5.9828e-15
8995.26 5.9665e-15
9016.0 5.8685e-15
9036.78 6.0581e-15
9057.61 6.6704e-15
9078.5 5.9698e-15
9099.42 5.8853e-15
9120.4 6.4206e-15
9141.43 5.9482e-15
9162.5 5.678e-15
9183.62 5.3951e-15
9204.79 5.9267e-15
9226.01 5.7626e-15
9247.28 5.7733e-15
9268.59 5.9597e-15
9289.96 5.8889e-15
9311.37 6.1212e-15
9332.84 6.1184e-15
9354.36 6.0876e-15
9375.92 6.0152e-15
9397.53 6.0541e-15
9419.2 5.9409e-15
9440.91 5.9793e-15
9462.67 6.0458e-15
9484.48 6.0291e-15
9506.35 5.9163e-15
9528.26 5.8594e-15
9550.23 5.5545e-15
9572.25 5.8136e-15
9594.31 5.9463e-15
9616.43 5.889e-15
9638.6 5.8862e-15
9660.82 5.8295e-15
9683.09 5.8671e-15
9705.41 5.7972e-15
9727.78 5.7546e-15
9750.21 5.7254e-15
9772.68 5.7359e-15
9795.21 5.6675e-15
9817.79 5.7436e-15
9840.42 5.7013e-15
9863.1 5.6724e-15
9885.84 5.6566e-15
9908.64 5.6279e-15
9931.48 5.6381e-15
9954.37 5.6353e-15
9977.32 5.6196e-15
10000.32 5.5911e-15
10023.37 5.499e-15
10069.64 5.3809e-15
10116.12 5.5007e-15
10186.23 5.4421e-15
10233.26 5.4366e-15
10280.49 5.4311e-15
10304.19 5.391e-15
10495.75 5.1865e-15
10690.89 4.975e-15
10889.65 4.7292e-15
11092.1 4.5687e-15
11298.31 4.4544e-15
11508.36 4.4136e-15
11695.37 4.2834e-15
11912.8 4.1475e-15
12106.37 4.0531e-15
12303.08 3.97e-15
12502.99 3.8618e-15
12706.14 3.7652e-15
12912.6 3.6626e-15
13092.24 3.5957e-15
13304.97 3.4897e-15
13490.06 3.4181e-15
13709.25 3.348e-15
13899.97 3.2418e-15
14093.34 3.1246e-15
14289.4 3.0534e-15
14488.18 3.0464e-15
14689.74 2.9634e-15
14894.09 2.9702e-15
15101.27 2.9566e-15
15311.36 2.9702e-15
15488.66 2.9566e-15
15704.13 2.8893e-15
15885.98 2.7784e-15
16106.97 2.7912e-15
16293.47 2.772e-15
16482.14 2.7151e-15
16711.43 2.684e-15
16904.95 2.6229e-15
17100.7 2.5751e-15
17298.71 2.4705e-15
17499.02 2.4032e-15
17701.65 2.3163e-15
17906.63 2.2376e-15
18113.97 2.1369e-15
18281.58 2.0835e-15
18493.28 2.0174e-15
18707.43 1.9266e-15
18880.51 1.8784e-15
19099.14 1.8484e-15
19320.3 1.7897e-15
19499.06 1.721e-15
19679.49 1.6741e-15
19907.37 1.6248e-15
20091.56 1.5951e-15
20277.48 1.541e-15
20512.28 1.5198e-15
20702.07 1.4784e-15
20893.63 1.4447e-15
21086.94 1.4184e-15
21282.07 1.3829e-15
21478.99 1.3545e-15
21677.72 1.3085e-15
21878.31 1.2876e-15
22080.76 1.2525e-15
22285.06 1.2184e-15
22491.27 1.1907e-15
22699.36 1.1609e-15
22909.41 1.049e-15
23121.39 1.0418e-15
23281.65 9.2e-16
23497.09 8.6854e-16
23714.49 8.8265e-16
23878.88 8.1244e-16
24099.81 7.8848e-16
24322.82 7.8485e-16
24491.4 7.3585e-16
24718.03 7.3078e-16
24889.35 6.4534e-16
25119.66 6.4386e-16
25293.77 6.4832e-16
25527.82 6.4238e-16
25704.79 6.4832e-16
25882.95 6.321e-16
26122.46 6.292e-16
26303.51 6.1346e-16
26485.86 6.0784e-16
26669.44 5.9537e-16
26916.22 5.872e-16
27102.78 5.7915e-16
27290.63 5.6727e-16
27479.82 5.582e-16
27670.28 5.4549e-16
27926.33 5.4049e-16
28119.89 5.2941e-16
28314.82 5.2094e-16
28511.08 5.1143e-16
28708.72 5.0094e-16
28907.71 4.9407e-16
29108.1 4.8505e-16
29309.86 4.751e-16
29513.04 4.6643e-16
29717.6 4.6003e-16
29923.61 4.506e-16
30131.02 4.4339e-16
30270.09 4.343e-16
30479.93 4.2834e-16
30691.19 4.2246e-16
30903.95 4.1571e-16
31118.15 4.1e-16
31333.87 4.0438e-16
31478.49 3.9883e-16
31696.67 3.9336e-16
31916.4 3.9065e-16
32063.71 3.8796e-16
32285.98 3.8975e-16
32509.76 4.0067e-16
32735.09 4.3832e-16
32886.22 5.4801e-16
33114.16 5.4174e-16
33267.03 4.1956e-16
33497.61 3.7135e-16
33729.79 3.4978e-16
33885.5 3.3635e-16
34120.37 3.2643e-16
34277.89 3.1973e-16
34515.47 3.1318e-16
34674.78 3.0675e-16
34915.15 3.0115e-16
35076.3 2.9566e-16
35319.46 2.9026e-16
35482.47 2.8562e-16
35728.41 2.8041e-16
35893.35 2.7592e-16
36059.02 2.7151e-16
36308.95 2.6717e-16
36476.57 2.6169e-16
36729.39 2.5751e-16
36898.92 2.5281e-16
37069.26 2.4819e-16
37326.2 2.4479e-16
37498.47 2.3977e-16
37671.59 2.3757e-16
37932.69 2.3377e-16
38107.82 2.3003e-16
38283.7 2.2688e-16
38460.4 2.2325e-16
38727.01 2.1968e-16
38905.76 2.1617e-16
39085.32 2.132e-16
39265.76 2.1028e-16
39537.92 2.0644e-16
39720.41 2.0361e-16
39903.78 1.9989e-16
40087.95 1.976e-16
40272.98 1.9489e-16
40458.85 1.9177e-16
40739.33 1.8958e-16
40927.35 1.8698e-16
41116.3 1.8441e-16
41306.07 1.823e-16
41496.72 1.798e-16
41688.24 1.7733e-16
41880.7 1.753e-16
42074.0 1.729e-16
42268.19 1.7131e-16
42463.32 1.6896e-16
42659.31 1.6703e-16
42856.2 1.6136e-16
43054.05 1.5624e-16
43252.76 1.566e-16
43452.4 1.5163e-16
43652.95 1.4921e-16
43854.47 1.4716e-16
44056.88 1.4315e-16
44260.22 1.4216e-16
44464.56 1.4054e-16
44669.78 1.3734e-16
44875.95 1.3765e-16
45083.12 1.3545e-16
45291.2 1.3329e-16
45500.24 1.3329e-16
45710.3 1.3207e-16
45921.27 1.2965e-16
46133.22 1.3025e-16
46346.14 1.2876e-16
46453.03 1.2758e-16
46667.43 1.2758e-16
46882.82 1.2641e-16
47099.26 1.2525e-16
47316.64 1.2583e-16
47535.03 1.2439e-16
47754.42 1.2382e-16
47864.55 1.2325e-16
48085.47 1.2212e-16
48307.41 1.2268e-16
48530.37 1.2156e-16
48754.41 1.2072e-16
48866.79 1.2045e-16
49092.34 1.1962e-16
49318.97 1.1974e-16
49546.6 1.1958e-16
49660.81 1.1977e-16
49890.02 1.1961e-16
50120.34 1.2001e-16
50351.67 1.1985e-16
50467.73 1.195e-16
50700.66 1.1989e-16
50817.59 1.2009e-16
50934.73 1.2001e-16
51052.13 1.1993e-16
51169.81 1.2013e-16
51287.76 1.2005e-16
51405.98 1.2025e-16
51524.48 1.2045e-16
51643.3 1.2093e-16
51762.34 1.2113e-16
51881.66 1.2133e-16
52001.25 1.2125e-16
52121.12 1.2145e-16
52241.26 1.2165e-16
52361.74 1.2186e-16
52482.44 1.2234e-16
52603.41 1.2283e-16
52724.67 1.2332e-16
52846.2 1.2352e-16
52968.01 1.2344e-16
53090.11 1.2365e-16
53212.54 1.2414e-16
53335.2 1.2464e-16
53458.14 1.2513e-16
53581.37 1.2563e-16
53704.88 1.2584e-16
53828.67 1.2634e-16
53952.75 1.2714e-16
54077.17 1.2765e-16
54201.83 1.2786e-16
54326.77 1.2837e-16
54451.99 1.2888e-16
54577.51 1.2969e-16
54703.31 1.3021e-16
54829.47 1.3073e-16
54955.85 1.3156e-16
55082.53 1.3208e-16
55209.5 1.3322e-16
55336.76 1.3437e-16
55464.32 1.3491e-16
55592.17 1.3545e-16
55720.37 1.3662e-16
55848.81 1.378e-16
55977.55 1.3867e-16
56106.58 1.3987e-16
56235.91 1.4108e-16
56365.53 1.4197e-16
56495.52 1.4353e-16
56625.75 1.4477e-16
56756.28 1.4635e-16
56887.1 1.4762e-16
57018.23 1.4924e-16
57149.66 1.5088e-16
57281.4 1.5288e-16
57413.5 1.5456e-16
57545.84 1.5698e-16
57678.49 1.5907e-16
57811.44 1.6118e-16
57944.7 1.6371e-16
58078.27 1.6665e-16
58212.14 1.6965e-16
58346.39 1.727e-16
58480.88 1.7621e-16
58615.68 1.7938e-16
58750.8 1.8345e-16
58886.22 1.8762e-16
59238.4 1.9904e-16
59535.29 1.9873e-16
59832.18 2.319e-16
60129.16 2.572e-16
60426.05 2.7054e-16
60722.94 2.7235e-16
61019.83 3.0599e-16
61316.72 4.2844e-16
61613.71 6.1544e-16
61910.6 7.7184e-16
62207.5 8.1808e-16
62504.38 7.4404e-16
62801.27 5.9709e-16
63098.26 4.5322e-16
63395.15 4.3233e-16
63692.04 3.9177e-16
63988.93 3.3485e-16
64285.82 3.1813e-16
64582.81 2.9179e-16
64879.69 2.6313e-16
65176.58 2.3811e-16
65473.48 2.4631e-16
65770.37 2.2712e-16
66067.36 2.6233e-16
66364.24 2.5817e-16
66661.14 2.3286e-16
66958.02 2.5315e-16
67254.92 2.8365e-16
67551.91 2.447e-16
67848.79 2.4855e-16
68145.68 2.2831e-16
68442.58 2.5637e-16
68739.47 2.3757e-16
69036.46 3.0204e-16
69333.34 3.0088e-16
69630.23 3.376e-16
69927.12 3.1117e-16
70224.01 3.0047e-16
70521.0 3.2514e-16
70817.89 3.1623e-16
71114.78 3.7145e-16
71411.67 3.5063e-16
71708.56 3.0469e-16
72005.55 3.3495e-16
72302.44 3.5443e-16
72599.33 3.6923e-16
72896.22 4.0026e-16
73193.11 4.0858e-16
73490.1 4.2919e-16
73786.99 4.7036e-16
74083.87 5.8593e-16
74380.76 5.7765e-16
74974.55 6.5015e-16
75568.42 7.3741e-16
76162.2 7.7444e-16
76755.99 7.5379e-16
77349.86 7.2109e-16
77943.65 6.8876e-16
78537.52 6.4537e-16
79131.3 5.6594e-16
79725.09 4.9538e-16
80318.95 4.3563e-16
80912.74 3.773e-16
81506.52 3.4873e-16
82100.39 3.3085e-16
82694.18 3.3995e-16
83287.95 3.4224e-16
83881.84 3.5358e-16
84475.62 3.5735e-16
85069.5 3.8871e-16
85663.28 4.0905e-16
86257.06 3.9914e-16
86850.94 3.6245e-16
87444.72 3.0767e-16
88038.5 2.5566e-16
88632.37 2.2626e-16
89226.15 2.2679e-16
89819.93 2.6042e-16
90413.81 1.931e-16
91007.59 1.5951e-16
91601.47 1.5503e-16
92195.25 1.5701e-16
92789.03 1.4321e-16
93382.9 1.4845e-16
93976.68 1.3984e-16
94570.47 1.4084e-16
95164.34 1.4916e-16
95758.12 1.3767e-16
96351.9 1.5186e-16
96945.78 1.5089e-16
97539.57 1.4574e-16
98133.44 1.446e-16
98727.22 1.4497e-16
99321.01 1.3948e-16
99914.88 1.3961e-16
100508.66 1.4295e-16
101102.44 1.4616e-16
101696.31 1.4564e-16
102290.1 1.4167e-16
102883.88 1.4262e-16
103477.75 1.5752e-16
104071.54 1.9128e-16
104665.42 2.7008e-16
105259.19 3.017e-16
105852.97 2.181e-16
106446.86 1.7177e-16
107040.64 1.7613e-16
107634.41 1.7238e-16
108228.29 1.7812e-16
108822.07 1.892e-16
109415.86 2.0399e-16
110009.73 2.3406e-16
110603.51 2.5768e-16
111197.39 3.1263e-16
111791.17 4.8312e-16
112384.95 5.712e-16
112978.83 5.1815e-16
113572.6 4.2248e-16
114166.39 3.4893e-16
114760.26 3.1025e-16
115354.04 2.6803e-16
115947.82 2.4825e-16
116541.7 2.4666e-16
117135.48 2.3461e-16
117729.37 2.3526e-16
118323.14 2.3627e-16
118916.92 2.4191e-16
119510.8 2.5267e-16
120104.58 2.4747e-16
120698.37 2.4708e-16
121292.23 2.437e-16
121886.02 2.5134e-16
122479.8 2.5528e-16
123073.67 2.591e-16
123667.46 2.6899e-16
124261.33 2.6915e-16
124855.11 2.7111e-16
125448.9 2.9058e-16
126042.77 3.017e-16
126636.55 3.1384e-16
127230.33 3.6847e-16
127824.22 4.9623e-16
128417.99 4.8708e-16
129011.76 2.9011e-16
129605.65 2.4392e-16
130199.43 2.2175e-16
130793.2 2.1806e-16
131387.09 2.1372e-16
131980.86 2.1909e-16
132574.75 2.1502e-16
133168.53 2.1436e-16
133762.3 2.2253e-16
134356.19 2.206e-16
134949.96 2.1871e-16
135543.74 2.2785e-16
136137.62 2.1767e-16
136731.4 2.1726e-16
137325.18 2.226e-16
137919.06 2.147e-16
138512.84 2.1065e-16
139106.72 2.2062e-16
139700.5 2.2499e-16
140294.28 2.0949e-16
140888.16 2.0276e-16
141481.94 1.9711e-16
142075.72 1.939e-16
143117.97 2.1093e-16
143949.35 2.1102e-16
144780.72 2.0481e-16
145612.09 2.038e-16
146443.36 2.0186e-16
147274.73 1.9966e-16
148106.1 2.0269e-16
148937.37 2.0391e-16
149768.74 2.054e-16
150600.11 2.0602e-16
151431.38 2.0689e-16
152262.75 2.0864e-16
153094.13 2.1113e-16
153925.41 2.2445e-16
154756.78 3.1646e-16
155588.14 5.5048e-16
156419.4 3.6776e-16
157250.79 2.3025e-16
158082.15 2.2713e-16
158913.52 2.263e-16
159744.8 2.2976e-16
160576.18 2.3089e-16
161407.53 2.3416e-16
162238.82 2.3598e-16
163070.17 2.5171e-16
163901.54 2.706e-16
164732.83 2.7478e-16
165564.18 2.6385e-16
166395.57 2.5633e-16
167226.83 2.6008e-16
168058.21 2.6037e-16
168889.58 2.6473e-16
169720.84 2.8668e-16
170552.22 3.056e-16
171383.59 2.8344e-16
172214.96 2.7449e-16
173046.23 2.7658e-16
173877.61 2.7982e-16
174708.97 2.7476e-16
175540.26 2.7102e-16
176371.63 2.7357e-16
177202.99 2.7824e-16
178034.27 2.7567e-16
178865.62 2.783e-16
179697.0 2.7446e-16
180528.28 2.7516e-16
181359.65 2.7487e-16
182191.01 2.7434e-16
183022.27 2.754e-16
183853.66 2.7681e-16
184685.04 2.8106e-16
185516.41 2.9163e-16
186347.67 3.5302e-16
187179.05 4.3084e-16
188010.4 3.7054e-16
188841.69 2.9843e-16
189673.06 2.9925e-16
190504.43 2.9802e-16
191335.7 2.9103e-16
192167.09 2.971e-16
192998.44 2.9423e-16
193829.71 2.985e-16
194661.08 3.0226e-16
195492.45 3.0149e-16
196323.74 2.9855e-16
197155.09 2.9645e-16
197986.48 2.9945e-16
198817.84 3.024e-16
199649.1 3.0197e-16
200480.49 3.019e-16
202143.13 2.9175e-16
203805.86 3.0846e-16
205468.52 3.0658e-16
207131.15 3.1032e-16
208793.88 3.1257e-16
210456.53 3.1613e-16
212119.28 3.1916e-16
213781.92 3.2117e-16
215444.56 3.2569e-16
217107.31 3.2906e-16
218769.96 3.2619e-16
220432.59 3.2834e-16
222095.32 3.3087e-16
223757.98 3.3499e-16
225420.71 3.3539e-16
227083.36 3.3967e-16
228746.0 3.4399e-16
230408.75 3.4605e-16
232071.39 3.4591e-16
233734.04 3.4348e-16
235396.76 3.4897e-16
237059.41 3.4981e-16
238722.15 3.5341e-16
240384.79 3.5716e-16
242047.44 3.5986e-16
243710.19 3.5568e-16
245372.83 3.5482e-16
247035.47 3.6065e-16
248698.22 3.6365e-16
250360.87 3.6233e-16
252023.58 3.6375e-16
253686.23 3.6627e-16
255348.87 3.7187e-16
257011.62 3.7172e-16
258674.26 3.7551e-16
260336.91 3.7371e-16
261999.64 3.7079e-16
263662.29 3.7477e-16
265325.02 3.7669e-16
266987.66 3.7702e-16
268650.34 3.767e-16
270313.07 3.7647e-16
271975.68 3.7406e-16
273638.33 3.7573e-16
275301.09 3.7937e-16
276963.74 3.8371e-16
278626.47 3.8275e-16
280289.11 3.8254e-16
281951.76 3.852e-16
283614.49 3.8506e-16
285277.14 3.8748e-16
286939.78 3.8388e-16
288602.51 3.8808e-16
290265.16 3.8773e-16
291927.89 3.865e-16
293590.57 3.8795e-16
295253.21 3.8768e-16
296915.94 3.9064e-16
298578.59 3.9366e-16
300241.23 3.9164e-16
301903.96 3.9547e-16
303566.61 3.9548e-16
305229.34 3.9486e-16
306891.99 3.9829e-16
308554.63 3.9675e-16
310217.36 4.0313e-16
311880.04 4.0125e-16
313542.68 3.9722e-16
315205.42 3.9894e-16
316868.03 4.0502e-16
318530.79 4.1055e-16
320193.44 4.1388e-16
321856.08 4.1516e-16
323518.81 4.1598e-16
325181.46 4.1845e-16
326844.1 4.2312e-16
328506.87 4.323e-16
330169.51 4.1579e-16
331832.21 4.2991e-16
333494.86 5.8221e-16
335157.53 5.3549e-16
336820.23 4.4914e-16
338482.88 4.4571e-16
340145.52 4.3154e-16
341808.29 4.3739e-16
343470.9 4.3124e-16
