# col1 col2
# An Atlas of Galaxy Spectral Energy Distributions from the Ultraviolet to the Mid-Infrared
# Brown et al. (2014)
# http://dx.doi.org/10.5072/03/529D3551F0117
# 
# Column 1 : Restframe Wavelength (Angstrom)
# Column 2 : Flux per unit wavelength (ergs/s/cm^2/Angstrom)
# Column 3 : Observed wavelength (Angstrom)
# Column 4 : Source (0 = model, 1 = Optical Spectrum, 2 = Akari, 3 = Spitzer IRS)
# 
100.11 5.4928e-21
101.98 6.6343e-21
104.11 7.3248e-21
106.05 8.3521e-21
108.02 9.6782e-21
110.03 1.336e-20
113.89 1.6436e-20
117.9 1.9178e-20
120.92 5.8586e-20
124.88 6.6957e-20
126.91 6.9951e-20
128.08 7.241e-20
131.07 7.67e-20
131.98 8.7055e-20
134.12 8.9701e-20
136.93 1.0563e-19
140.12 1.1112e-19
143.05 2.311e-19
147.06 4.2736e-19
150.83 4.475e-19
155.06 4.7402e-19
159.04 5.0326e-19
161.99 5.2335e-19
166.15 5.5564e-19
170.02 5.8049e-19
173.18 6.0366e-19
176.81 6.2921e-19
180.09 6.4833e-19
182.18 6.6038e-19
185.99 6.8675e-19
191.2 7.1746e-19
193.86 7.4096e-19
197.92 7.6524e-19
202.07 7.9213e-19
204.88 8.1058e-19
210.13 8.1058e-19
216.02 8.7659e-19
220.04 9.0531e-19
223.1 9.1368e-19
227.25 9.4362e-19
229.88 1.4054e-18
234.15 2.274e-18
240.16 3.0047e-18
245.75 2.7977e-18
252.06 2.943e-18
256.74 2.2951e-18
259.72 2.8106e-18
263.94 2.9634e-18
268.84 2.9363e-18
273.84 2.8893e-18
278.93 2.8301e-18
284.12 2.8171e-18
290.07 2.6595e-18
296.14 2.629e-18
300.95 2.4536e-18
307.96 2.4992e-18
318.05 2.5398e-18
327.72 2.4706e-18
337.67 2.3812e-18
347.93 2.2845e-18
356.86 2.2532e-18
366.01 2.2636e-18
375.4 2.1918e-18
385.03 2.0314e-18
394.91 2.0739e-18
405.04 2.0644e-18
414.47 1.9989e-18
422.18 1.9222e-18
430.03 1.8569e-18
441.06 1.8399e-18
451.33 1.7939e-18
459.72 1.7211e-18
470.43 1.6858e-18
480.28 1.6896e-18
490.34 1.621e-18
499.46 1.6665e-18
506.4 2.1767e-18
512.27 6.2058e-18
520.59 6.365e-18
530.27 6.5433e-18
540.13 6.1206e-18
550.17 8.5664e-18
560.4 1.0158e-17
569.51 1.1371e-17
580.09 1.0661e-17
589.52 1.3056e-17
600.48 1.3329e-17
610.24 1.566e-17
620.15 1.7815e-17
630.23 1.909e-17
640.47 1.9178e-17
649.38 2.1667e-17
658.41 2.2898e-17
664.5 2.4255e-17
675.3 2.4479e-17
684.7 2.4032e-17
694.22 3.0605e-17
705.5 2.8827e-17
715.32 3.4657e-17
725.27 3.5958e-17
735.36 3.7222e-17
745.59 4.1572e-17
754.22 4.3934e-17
764.71 4.6004e-17
775.35 5.0095e-17
784.33 5.3308e-17
795.24 5.5692e-17
804.45 5.8049e-17
815.64 5.9951e-17
825.08 6.5132e-17
834.64 5.455e-17
844.3 6.8359e-17
854.08 7.0436e-17
865.96 7.5474e-17
875.99 8.0315e-17
884.09 8.6456e-17
894.33 9.0739e-17
904.69 9.1158e-17
915.16 1.3329e-16
925.76 8.6257e-16
934.32 1.8915e-15
945.14 3.6374e-15
956.09 5.1027e-15
964.93 5.8586e-15
976.11 1.0181e-15
985.14 5.2095e-15
994.26 5.3308e-15
1005.77 7.4096e-15
1015.07 6.9151e-15
1024.47 2.8431e-15
1033.95 4.8506e-15
1045.92 9.0323e-15
1055.6 8.8267e-15
1065.36 7.0761e-15
1075.22 8.2755e-15
1085.17 6.6038e-15
1095.21 8.4878e-15
1105.35 8.1058e-15
1115.57 7.7946e-15
1125.89 7.0113e-15
1133.7 8.6257e-15
1144.19 7.7946e-15
1154.78 8.1997e-15
1165.46 8.41e-15
1176.24 5.9675e-15
1184.4 7.9946e-15
1195.36 5.5564e-15
1203.64 4.0625e-15
1214.78 2.4877e-15
1226.02 5.1736e-15
1234.52 7.741e-15
1245.94 8.4878e-15
1254.58 8.1245e-15
1266.19 6.9951e-15
1274.96 8.847e-15
1283.8 9.179e-15
1295.68 7.4096e-15
1304.66 7.2576e-15
1313.7 8.8267e-15
1325.86 8.4294e-15
1335.05 7.5127e-15
1344.31 8.7256e-15
1353.62 8.41e-15
1366.15 7.5648e-15
1375.62 7.8668e-15
1385.15 7.9031e-15
1394.75 6.8992e-15
1404.42 7.0924e-15
1414.16 7.2576e-15
1423.96 7.3586e-15
1433.83 7.2744e-15
1440.45 7.6172e-15
1447.1 7.6877e-15
1453.78 7.461e-15
1463.85 6.9151e-15
1474.0 6.8517e-15
1484.22 6.9151e-15
1494.51 6.979e-15
1504.87 6.6038e-15
1511.81 5.9401e-15
1515.3 6.2921e-15
1525.8 6.0925e-15
1536.38 5.3308e-15
1543.47 5.7385e-15
1554.17 5.4175e-15
1564.94 5.5055e-15
1575.79 5.8049e-15
1586.71 6.0089e-15
1594.03 6.1066e-15
1605.08 5.9401e-15
1616.21 5.9128e-15
1623.67 5.6208e-15
1634.92 5.8992e-15
1646.26 5.9401e-15
1653.86 5.5182e-15
1665.32 5.9401e-15
1673.01 5.3555e-15
1676.86 5.8992e-15
1684.6 6.0785e-15
1696.28 5.7385e-15
1704.11 5.4928e-15
1715.92 5.2095e-15
1723.84 5.1499e-15
1735.79 5.4175e-15
1743.8 5.2698e-15
1755.89 5.5437e-15
1764.0 5.1144e-15
1776.22 5.1975e-15
1784.42 5.2577e-15
1796.79 5.5055e-15
1805.09 5.455e-15
1813.42 5.0559e-15
1825.99 5.1262e-15
1834.42 4.9408e-15
1842.88 4.5687e-15
1855.66 4.5477e-15
1864.22 4.6323e-15
1877.15 4.9522e-15
1885.81 4.5582e-15
1894.51 4.3531e-15
1903.26 4.5898e-15
1916.45 4.4136e-15
1925.3 4.3132e-15
1934.18 4.4545e-15
1943.11 4.5687e-15
1956.58 4.2638e-15
1965.61 4.5793e-15
1974.68 4.6967e-15
1983.8 4.434e-15
1992.96 4.3032e-15
2006.77 4.4035e-15
2016.03 4.2638e-15
2025.34 4.434e-15
2034.69 4.186e-15
2044.08 4.2835e-15
2053.51 4.0532e-15
2062.99 4.1001e-15
2072.52 4.3431e-15
2077.29 4.1096e-15
2086.88 4.2344e-15
2096.51 4.016e-15
2106.19 4.0625e-15
2115.91 4.0719e-15
2125.68 4.1096e-15
2135.49 3.8708e-15
2145.35 3.8976e-15
2155.25 4.0068e-15
2165.2 3.8976e-15
2175.19 3.853e-15
2185.23 3.7653e-15
2195.32 3.8976e-15
2205.45 3.7914e-15
2215.63 3.6542e-15
2225.86 3.5383e-15
2236.13 3.688e-15
2246.45 3.5546e-15
2256.82 3.4419e-15
2267.24 3.4898e-15
2272.47 3.5465e-15
2282.96 3.5793e-15
2293.49 3.4026e-15
2304.08 3.3877e-15
2314.72 3.2658e-15
2325.4 2.717e-15
2336.13 3.1059e-15
2346.92 3.0358e-15
2352.33 3.1574e-15
2363.19 2.9883e-15
2374.09 3.0235e-15
2385.05 2.8748e-15
2396.06 2.9971e-15
2407.12 2.8894e-15
2412.67 2.9164e-15
2423.81 2.9988e-15
2434.99 2.8844e-15
2446.23 2.9864e-15
2457.52 2.9326e-15
2463.19 2.9127e-15
2474.56 2.8275e-15
2485.98 2.894e-15
2497.46 2.689e-15
2503.21 2.9218e-15
2514.77 2.7211e-15
2520.56 2.8041e-15
2526.38 2.703e-15
2532.2 2.6971e-15
2543.89 2.6424e-15
2555.63 2.7359e-15
2567.43 2.699e-15
2573.34 2.7878e-15
2585.22 2.7629e-15
2597.15 2.7319e-15
2603.14 2.6578e-15
2615.16 2.634e-15
2627.23 2.6713e-15
2633.28 2.6778e-15
2645.44 2.7918e-15
2657.65 2.7797e-15
2663.78 2.6366e-15
2676.07 2.6925e-15
2682.24 2.6681e-15
2694.62 2.5901e-15
2707.06 2.6087e-15
2713.3 2.5321e-15
2725.82 2.5269e-15
2732.11 2.592e-15
2744.72 2.3975e-15
2757.39 2.3981e-15
2763.74 2.4317e-15
2776.5 2.4948e-15
2782.9 2.4439e-15
2795.75 2.1439e-15
2802.19 2.2452e-15
2815.13 2.4511e-15
2828.12 2.4574e-15
2834.64 2.3743e-15
2847.72 2.3369e-15
2854.29 2.3158e-15
2867.46 2.3813e-15
2874.07 2.349e-15
2887.34 2.3496e-15
2894.0 2.3177e-15
2907.35 2.3832e-15
2927.51 2.3246e-15
2947.8 2.283e-15
2968.23 2.2735e-15
2988.81 2.2484e-15
3009.52 2.239e-15
3030.38 2.2194e-15
3051.39 2.1898e-15
3072.54 2.1657e-15
3086.72 2.1464e-15
3108.12 2.1179e-15
3129.66 2.0849e-15
3151.36 2.0715e-15
3173.2 2.0439e-15
3187.85 1.9797e-15
3209.95 1.9897e-15
3232.2 1.9452e-15
3247.12 1.9548e-15
3269.62 1.9512e-15
3292.29 1.9297e-15
3307.48 1.9126e-15
3322.75 1.9264e-15
3330.41 1.9267e-15
3338.09 1.8702e-15
3345.78 1.8705e-15
3353.5 1.8579e-15
3361.23 1.8454e-15
3368.98 1.8203e-15
3376.74 1.771e-15
3384.52 1.8125e-15
3392.33 1.855e-15
3400.15 1.8985e-15
3407.99 1.7967e-15
3415.84 1.8178e-15
3423.72 1.8562e-15
3431.61 1.8607e-15
3439.52 1.844e-15
3447.45 1.7735e-15
3455.4 1.7534e-15
3463.36 1.7138e-15
3471.35 1.754e-15
3479.35 1.7143e-15
3487.37 1.7345e-15
3495.41 1.7468e-15
3503.46 1.727e-15
3511.54 1.7036e-15
3519.64 1.7078e-15
3527.75 1.7002e-15
3535.88 1.7321e-15
3544.03 1.7525e-15
3552.2 1.7487e-15
3560.39 1.741e-15
3568.6 1.6977e-15
3576.83 1.6253e-15
3585.07 1.6069e-15
3593.33 1.6109e-15
3601.62 1.664e-15
3609.92 1.6414e-15
3618.24 1.653e-15
3626.59 1.6996e-15
3634.94 1.6689e-15
3643.32 1.6885e-15
3651.72 1.6503e-15
3660.14 1.6929e-15
3668.58 1.67e-15
3677.03 1.6664e-15
3685.51 1.625e-15
3694.01 1.6328e-15
3702.52 1.6711e-15
3711.06 1.5998e-15
3719.61 1.7789e-15
3728.19 1.5784e-15
3736.78 1.4498e-15
3745.4 2.0577e-15
3754.03 1.3045e-15
3762.68 2.0822e-15
3771.36 1.5581e-15
3780.05 1.9349e-15
3786.88 2.5787e-15
3789.62 2.2618e-15
3792.36 1.4781e-15
3795.1 1.8573e-15
3797.84 2.4163e-15
3800.58 2.7001e-15
3803.32 2.219e-15
3806.06 2.0072e-15
3808.8 1.8634e-15
3811.54 2.0899e-15
3814.28 1.5673e-15
3817.02 2.2368e-15
3819.76 1.7442e-15
3822.51 1.5229e-15
3825.25 2.0076e-15
3827.99 1.6932e-15
3830.73 2.1487e-15
3833.47 1.9943e-15
3836.21 2.4795e-15
3838.95 1.5789e-15
3841.69 2.1372e-15
3844.43 1.8778e-15
3847.17 2.5958e-15
3849.91 2.125e-15
3852.65 2.3553e-15
3855.39 2.1525e-15
3858.13 2.291e-15
3860.87 2.5258e-15
3863.61 3.919e-15
3866.35 6.9333e-15
3869.09 6.7628e-15
3871.83 5.9941e-15
3874.57 3.4637e-15
3877.32 2.107e-15
3880.06 2.1975e-15
3882.8 2.1527e-15
3885.54 2.8543e-15
3888.28 3.4846e-15
3891.02 3.0875e-15
3893.76 2.7441e-15
3896.5 2.6133e-15
3899.24 2.1181e-15
3901.98 1.9088e-15
3904.72 2.2917e-15
3907.46 2.0247e-15
3910.2 1.9789e-15
3912.94 2.5056e-15
3915.68 2.17e-15
3918.42 2.2384e-15
3921.16 2.1138e-15
3923.9 1.7226e-15
3926.64 2.2719e-15
3929.38 2.1275e-15
3932.13 1.8844e-15
3934.87 2.2206e-15
3937.61 2.0905e-15
3940.35 2.2894e-15
3943.09 2.4324e-15
3945.83 2.1623e-15
3948.57 1.9134e-15
3951.31 1.8977e-15
3954.05 1.9149e-15
3956.79 2.1352e-15
3959.53 2.5289e-15
3962.27 2.4925e-15
3965.01 3.1213e-15
3967.75 4.2492e-15
3970.49 3.8048e-15
3973.23 2.8299e-15
3975.97 2.2586e-15
3978.71 2.4499e-15
3981.45 2.3567e-15
3984.19 2.2804e-15
3986.94 2.0113e-15
3989.68 1.7029e-15
3992.42 1.9666e-15
3995.16 2.233e-15
3997.9 1.9823e-15
4000.64 1.9173e-15
4003.38 2.234e-15
4006.12 2.1562e-15
4008.86 2.2078e-15
4011.6 1.6405e-15
4014.34 2.0541e-15
4017.08 1.6964e-15
4019.82 2.0431e-15
4022.56 2.4273e-15
4025.3 2.6788e-15
4028.04 2.7799e-15
4030.78 2.0422e-15
4033.52 2.3486e-15
4036.26 2.2393e-15
4039.0 1.9577e-15
4041.75 2.2033e-15
4044.49 1.8941e-15
4047.23 1.9814e-15
4049.97 1.755e-15
4052.71 1.9569e-15
4055.45 2.1727e-15
4058.19 2.0858e-15
4060.93 1.8356e-15
4063.67 2.415e-15
4066.41 2.2208e-15
4069.15 2.1019e-15
4071.89 1.9935e-15
4074.63 1.5425e-15
4077.37 2.4182e-15
4080.11 2.0679e-15
4082.85 1.6627e-15
4085.59 2.08e-15
4088.33 2.5767e-15
4091.07 1.9042e-15
4093.81 2.0501e-15
4096.56 3.3966e-15
4099.3 4.3037e-15
4102.04 4.061e-15
4104.78 3.601e-15
4107.52 2.1206e-15
4110.26 1.7486e-15
4113.0 1.814e-15
4115.74 1.9676e-15
4118.48 1.8228e-15
4121.22 1.8924e-15
4123.96 2.2628e-15
4126.7 1.6512e-15
4129.44 2.0938e-15
4132.18 1.7616e-15
4134.92 2.2466e-15
4137.66 1.7352e-15
4140.4 2.1199e-15
4143.14 1.9262e-15
4145.88 1.9875e-15
4148.63 2.6951e-15
4151.37 1.8375e-15
4154.11 1.7524e-15
4156.85 2.0417e-15
4159.59 1.6887e-15
4162.33 1.7803e-15
4165.07 1.8222e-15
4167.81 1.9448e-15
4170.55 1.5088e-15
4173.29 2.0534e-15
4176.03 1.4712e-15
4178.77 1.7375e-15
4181.51 1.8891e-15
4184.25 2.0899e-15
4186.99 1.8039e-15
4189.73 2.3888e-15
4192.47 2.0177e-15
4195.21 1.5347e-15
4197.95 1.5472e-15
4200.69 2.0641e-15
4203.44 1.8558e-15
4206.18 1.7539e-15
4208.92 2.0346e-15
4211.66 1.783e-15
4214.4 1.9809e-15
4217.14 1.9645e-15
4219.88 2.4486e-15
4222.62 1.9958e-15
4225.36 2.1296e-15
4228.1 2.0945e-15
4230.84 1.8021e-15
4233.58 1.5562e-15
4236.32 2.1411e-15
4239.06 2.3553e-15
4241.8 2.0101e-15
4244.54 2.1886e-15
4247.28 2.0274e-15
4250.02 1.7489e-15
4252.76 1.6838e-15
4255.5 1.6533e-15
4258.25 1.874e-15
4260.99 1.8695e-15
4263.73 1.5326e-15
4266.47 1.8452e-15
4269.21 1.7463e-15
4271.95 1.818e-15
4274.69 1.9794e-15
4277.43 2.0422e-15
4280.17 1.8649e-15
4282.91 1.5867e-15
4285.65 1.8498e-15
4288.39 1.7648e-15
4291.13 1.7225e-15
4293.87 2.0203e-15
4296.61 1.8484e-15
4299.35 1.4967e-15
4302.09 1.8483e-15
4304.83 1.7775e-15
4307.57 1.6705e-15
4310.31 1.9998e-15
4313.06 1.8416e-15
4315.8 1.6135e-15
4318.54 1.6605e-15
4321.28 1.8181e-15
4324.02 1.7067e-15
4326.76 1.7372e-15
4329.5 2.0752e-15
4332.24 2.3142e-15
4334.98 3.4961e-15
4337.72 5.9737e-15
4340.46 6.8626e-15
4343.2 4.9642e-15
4345.94 3.0269e-15
4348.68 1.685e-15
4351.42 1.7422e-15
4354.16 1.9198e-15
4356.9 2.468e-15
4359.64 2.7591e-15
4362.38 2.8656e-15
4365.12 2.801e-15
4367.87 2.4492e-15
4370.61 1.7681e-15
4373.35 1.5938e-15
4376.09 1.9501e-15
4378.83 1.845e-15
4381.57 1.5017e-15
4384.31 1.7368e-15
4387.05 1.8437e-15
4389.79 1.9815e-15
4392.53 1.4636e-15
4395.27 1.9126e-15
4398.01 1.8785e-15
4400.75 1.8346e-15
4403.49 2.1107e-15
4406.23 1.5898e-15
4408.97 1.7916e-15
4411.71 1.553e-15
4414.45 1.5126e-15
4417.19 1.6755e-15
4419.93 2.0053e-15
4422.68 1.5357e-15
4425.42 1.9811e-15
4428.16 1.9421e-15
4430.9 1.9257e-15
4433.64 1.8511e-15
4436.38 1.9181e-15
4439.12 1.6384e-15
4441.86 2.0384e-15
4444.6 1.6322e-15
4447.34 2.0482e-15
4450.08 1.8311e-15
4452.82 1.6254e-15
4455.56 1.9187e-15
4458.3 1.7903e-15
4461.04 1.4374e-15
4463.78 2.1267e-15
4466.52 1.8366e-15
4469.26 2.1095e-15
4472.0 2.4453e-15
4474.75 2.0471e-15
4477.49 1.876e-15
4480.23 1.6457e-15
4482.97 1.5984e-15
4485.71 1.774e-15
4488.45 1.6101e-15
4491.19 1.7289e-15
4493.93 1.582e-15
4496.67 1.5807e-15
4499.41 1.6486e-15
4502.15 1.4529e-15
4504.89 1.6916e-15
4507.63 1.69e-15
4510.37 1.8583e-15
4513.11 1.7163e-15
4515.85 1.8592e-15
4518.59 1.8934e-15
4521.33 1.5976e-15
4524.07 1.4523e-15
4526.81 1.7725e-15
4529.56 1.7325e-15
4532.3 1.825e-15
4535.04 1.4555e-15
4537.78 1.6292e-15
4540.52 1.8724e-15
4543.26 1.6424e-15
4546.0 1.6092e-15
4548.74 1.8342e-15
4551.48 1.7029e-15
4554.22 1.682e-15
4556.96 1.6656e-15
4559.7 1.7902e-15
4562.44 1.7917e-15
4565.18 1.7104e-15
4567.92 1.6716e-15
4570.66 1.6221e-15
4573.4 1.4505e-15
4576.14 1.5666e-15
4578.88 1.5326e-15
4581.62 1.6711e-15
4584.37 1.8276e-15
4587.11 1.6311e-15
4589.85 1.4477e-15
4592.59 1.3689e-15
4595.33 1.7484e-15
4598.07 1.8498e-15
4600.81 1.5702e-15
4603.55 1.7254e-15
4606.29 1.7211e-15
4609.03 1.5353e-15
4611.77 1.691e-15
4614.51 1.7425e-15
4617.25 1.6106e-15
4619.99 1.8252e-15
4622.73 1.6639e-15
4625.47 1.7084e-15
4628.21 1.6834e-15
4630.95 1.5796e-15
4633.69 1.6209e-15
4636.43 1.5844e-15
4639.18 1.7557e-15
4641.92 1.4826e-15
4644.66 1.33e-15
4647.4 1.4878e-15
4650.14 1.6666e-15
4652.88 1.7688e-15
4655.62 1.7036e-15
4658.36 1.6803e-15
4661.1 1.5634e-15
4663.84 1.6567e-15
4666.58 1.6946e-15
4669.32 1.4471e-15
4672.06 1.3038e-15
4674.8 1.5903e-15
4677.54 1.6769e-15
4680.28 1.5432e-15
4683.02 1.8511e-15
4685.76 1.897e-15
4688.5 1.7939e-15
4691.24 1.7005e-15
4693.99 1.619e-15
4696.73 1.6842e-15
4699.47 1.9165e-15
4702.21 1.7983e-15
4704.95 1.8332e-15
4707.69 1.7526e-15
4710.43 1.7627e-15
4713.17 1.6332e-15
4715.91 1.9201e-15
4718.65 1.6292e-15
4721.39 1.5087e-15
4724.13 1.4482e-15
4726.87 1.5507e-15
4729.61 1.847e-15
4732.35 1.5795e-15
4735.09 1.4552e-15
4737.83 1.6764e-15
4740.57 1.2848e-15
4743.31 1.4428e-15
4746.05 1.9119e-15
4748.8 1.7349e-15
4751.54 1.4505e-15
4754.28 1.661e-15
4757.02 1.4196e-15
4759.76 1.319e-15
4762.5 1.6216e-15
4765.24 1.6596e-15
4767.98 1.6699e-15
4770.72 1.6098e-15
4773.46 1.7474e-15
4776.2 1.5848e-15
4778.94 1.7261e-15
4781.68 1.4071e-15
4784.42 1.5704e-15
4787.16 1.5618e-15
4789.9 1.5017e-15
4792.64 1.2309e-15
4795.38 1.4828e-15
4798.12 1.7069e-15
4800.87 1.3202e-15
4803.61 1.4694e-15
4806.35 1.6612e-15
4809.09 1.5183e-15
4811.83 1.3309e-15
4814.57 1.5861e-15
4817.31 1.8766e-15
4820.05 1.3587e-15
4822.79 1.7305e-15
4825.53 1.2897e-15
4828.27 1.7262e-15
4831.01 1.6363e-15
4833.75 1.4672e-15
4836.49 1.8145e-15
4839.23 1.5461e-15
4841.97 1.5599e-15
4844.71 1.4426e-15
4847.45 1.76e-15
4850.19 1.5596e-15
4852.93 2.493e-15
4855.68 4.9658e-15
4858.42 1.0814e-14
4861.16 1.3568e-14
4863.9 1.0486e-14
4866.64 5.1612e-15
4869.38 2.2934e-15
4872.12 1.6245e-15
4874.86 1.3917e-15
4877.6 1.4758e-15
4880.34 1.6231e-15
4883.08 1.3913e-15
4885.82 1.3781e-15
4888.56 1.463e-15
4891.3 1.657e-15
4894.04 1.6173e-15
4896.78 1.3985e-15
4899.52 1.3703e-15
4902.26 1.5615e-15
4905.0 1.8198e-15
4907.74 1.3516e-15
4910.49 1.5237e-15
4913.23 1.8185e-15
4915.97 1.7133e-15
4918.71 1.4809e-15
4921.45 1.6423e-15
4924.19 1.5441e-15
4926.93 1.7604e-15
4929.67 1.8487e-15
4932.41 1.395e-15
4935.15 1.5112e-15
4937.89 1.4604e-15
4940.63 1.8234e-15
4943.37 1.4347e-15
4946.11 1.3324e-15
4948.85 2.1099e-15
4951.59 4.3736e-15
4954.33 1.2433e-14
4957.07 2.228e-14
4959.81 2.4063e-14
4962.55 1.4908e-14
4965.3 8.6045e-15
4968.04 2.5871e-15
4970.78 1.5421e-15
4973.52 1.6323e-15
4976.26 1.6168e-15
4979.0 1.606e-15
4981.74 1.4668e-15
4984.48 1.5453e-15
4987.22 1.8112e-15
4989.96 1.6059e-15
4992.7 1.6981e-15
4995.44 2.4392e-15
4998.18 5.2992e-15
5000.92 1.8963e-14
5003.66 5.1029e-14
5006.4 7.2016e-14
5009.14 5.9015e-14
5011.88 2.6277e-14
5014.62 8.2248e-15
5017.36 3.3803e-15
5020.11 2.085e-15
5022.85 1.8148e-15
5025.59 1.3677e-15
5028.33 1.5271e-15
5031.07 1.4609e-15
5033.81 1.3581e-15
5036.55 1.6047e-15
5039.29 1.5382e-15
5042.03 1.6438e-15
5044.77 1.508e-15
5047.51 1.6657e-15
5050.25 1.7809e-15
5052.99 1.9211e-15
5055.73 1.545e-15
5058.47 1.3692e-15
5061.21 1.5057e-15
5063.95 1.2429e-15
5066.69 1.5697e-15
5069.43 1.4685e-15
5072.17 1.2174e-15
5074.92 1.7591e-15
5077.66 1.5297e-15
5080.4 1.2847e-15
5083.14 1.6078e-15
5085.88 1.485e-15
5088.62 1.5925e-15
5091.36 1.1781e-15
5094.1 1.5133e-15
5096.84 1.6932e-15
5099.58 1.2772e-15
5102.32 1.3673e-15
5105.06 1.0825e-15
5107.8 1.5232e-15
5110.54 1.1664e-15
5113.28 1.2304e-15
5116.02 1.443e-15
5118.76 1.3587e-15
5121.5 1.4019e-15
5124.24 1.432e-15
5126.98 1.2742e-15
5129.73 1.2371e-15
5132.47 1.0964e-15
5135.21 1.3081e-15
5137.95 1.3298e-15
5140.69 1.4465e-15
5143.43 1.3388e-15
5146.17 1.1636e-15
5148.91 1.3e-15
5151.65 1.2489e-15
5154.39 1.5043e-15
5157.13 1.4355e-15
5159.87 1.1657e-15
5162.61 1.425e-15
5165.35 1.1441e-15
5168.09 1.4499e-15
5170.83 1.3496e-15
5173.57 1.2836e-15
5176.31 1.2837e-15
5179.05 1.323e-15
5181.8 1.7377e-15
5184.54 1.4543e-15
5187.28 1.2528e-15
5190.02 1.4035e-15
5192.76 1.2419e-15
5195.5 1.5096e-15
5198.24 1.6012e-15
5200.98 1.3729e-15
5203.72 1.2243e-15
5206.46 1.3282e-15
5209.2 1.3508e-15
5211.94 1.3158e-15
5214.68 1.4826e-15
5217.42 1.4937e-15
5220.16 1.5193e-15
5222.9 1.2316e-15
5225.64 1.4046e-15
5228.38 1.1923e-15
5231.12 1.2101e-15
5233.86 1.1219e-15
5236.61 1.1714e-15
5239.35 1.5029e-15
5242.09 1.4356e-15
5244.83 1.2477e-15
5247.57 1.2812e-15
5250.31 1.4581e-15
5253.05 1.3345e-15
5255.79 1.4128e-15
5258.53 1.5906e-15
5261.27 1.3242e-15
5264.01 1.416e-15
5266.75 1.4152e-15
5269.49 1.3887e-15
5272.23 1.5667e-15
5274.97 1.5359e-15
5277.71 1.2967e-15
5280.45 1.4109e-15
5283.19 1.2024e-15
5285.93 1.4339e-15
5288.67 1.2674e-15
5291.42 1.2102e-15
5294.16 1.2587e-15
5296.9 1.2688e-15
5299.64 1.4262e-15
5302.38 1.6242e-15
5305.12 1.156e-15
5307.86 1.3393e-15
5310.6 1.3367e-15
5313.34 1.3805e-15
5316.08 1.4588e-15
5318.82 1.3414e-15
5321.56 1.4337e-15
5324.3 1.1405e-15
5327.04 1.254e-15
5329.78 1.6681e-15
5332.52 1.6176e-15
5335.26 1.4576e-15
5338.0 1.3781e-15
5340.74 1.3519e-15
5343.48 1.1176e-15
5346.23 1.2057e-15
5348.97 1.3102e-15
5351.71 1.3301e-15
5354.45 1.1697e-15
5357.19 1.2082e-15
5359.93 1.2418e-15
5362.67 1.1424e-15
5365.41 1.1969e-15
5368.15 1.2921e-15
5370.89 1.2801e-15
5373.63 1.2655e-15
5376.37 1.2866e-15
5379.11 1.1923e-15
5381.85 1.4478e-15
5384.59 1.3117e-15
5387.33 1.1751e-15
5390.07 1.2348e-15
5392.81 1.5407e-15
5395.55 1.5259e-15
5398.29 1.3148e-15
5401.04 1.3978e-15
5403.78 1.1846e-15
5406.52 1.2425e-15
5409.26 1.1086e-15
5412.0 1.1988e-15
5414.74 1.3429e-15
5417.48 1.2791e-15
5420.22 1.2964e-15
5422.96 1.2634e-15
5425.7 1.1542e-15
5428.44 1.2954e-15
5431.18 1.1972e-15
5433.92 1.3719e-15
5436.66 1.5181e-15
5439.4 1.4983e-15
5442.14 1.4439e-15
5444.88 1.2767e-15
5447.62 1.1448e-15
5450.36 1.1806e-15
5453.1 1.2608e-15
5455.85 1.2752e-15
5458.59 1.5329e-15
5461.33 1.1208e-15
5464.07 1.1646e-15
5466.81 1.1803e-15
5469.55 1.1493e-15
5472.29 1.1455e-15
5475.03 1.2127e-15
5477.77 1.256e-15
5480.51 1.2272e-15
5483.25 1.043e-15
5485.99 1.3699e-15
5488.73 1.0633e-15
5491.47 1.1775e-15
5494.21 1.2323e-15
5496.95 1.4691e-15
5499.69 1.5186e-15
5502.43 1.3296e-15
5505.17 1.476e-15
5507.92 1.1871e-15
5510.66 1.0591e-15
5513.4 1.0284e-15
5516.14 1.1484e-15
5518.88 1.1646e-15
5521.62 1.1663e-15
5524.36 1.3638e-15
5527.1 1.2678e-15
5529.84 1.2347e-15
5532.58 1.2421e-15
5535.32 1.2831e-15
5538.06 1.1446e-15
5540.8 1.2103e-15
5543.54 1.0927e-15
5546.28 1.2526e-15
5549.02 1.0815e-15
5551.76 1.6028e-15
5554.5 1.1184e-15
5557.24 1.2374e-15
5559.98 1.5437e-15
5562.73 1.2421e-15
5565.47 1.268e-15
5568.21 1.0251e-15
5570.95 1.0351e-15
5573.69 1.3357e-15
5576.43 1.0482e-15
5579.17 1.3351e-15
5581.91 1.1321e-15
5584.65 1.2994e-15
5587.39 1.2901e-15
5590.13 1.3391e-15
5592.87 1.1895e-15
5595.61 1.1948e-15
5598.35 1.0646e-15
5601.09 1.119e-15
5603.83 1.1126e-15
5606.57 1.2533e-15
5609.31 1.2598e-15
5612.05 9.2291e-16
5614.79 9.7469e-16
5617.54 9.9365e-16
5620.28 1.1429e-15
5623.02 1.2266e-15
5625.76 1.096e-15
5628.5 1.1703e-15
5631.24 1.2965e-15
5633.98 1.2896e-15
5636.72 1.3636e-15
5639.46 1.1775e-15
5642.2 1.0744e-15
5644.94 1.1857e-15
5647.68 1.1605e-15
5650.42 1.1642e-15
5653.16 1.2466e-15
5655.9 1.3429e-15
5658.64 1.2979e-15
5661.38 1.1202e-15
5664.12 1.1697e-15
5666.86 1.1742e-15
5669.6 1.2233e-15
5672.35 1.2263e-15
5675.09 1.1376e-15
5677.83 9.8821e-16
5680.57 1.2409e-15
5683.31 1.2831e-15
5686.05 1.3089e-15
5688.79 1.3176e-15
5691.53 1.2701e-15
5694.27 1.1517e-15
5697.01 1.0942e-15
5699.75 1.1133e-15
5702.49 1.2243e-15
5705.23 1.1359e-15
5707.97 1.1605e-15
5710.71 1.032e-15
5713.45 1.075e-15
5716.19 1.1676e-15
5718.93 1.0784e-15
5721.67 1.0276e-15
5724.41 1.1706e-15
5727.16 1.1823e-15
5729.9 1.3367e-15
5732.64 1.2014e-15
5735.38 1.435e-15
5738.12 1.2956e-15
5740.86 1.1896e-15
5743.6 1.3045e-15
5746.34 1.3939e-15
5749.08 1.1708e-15
5751.82 1.0934e-15
5754.56 1.2666e-15
5757.3 1.1782e-15
5760.04 1.0959e-15
5762.78 1.1939e-15
5765.52 1.1226e-15
5768.26 1.1552e-15
5771.0 1.0908e-15
5773.74 9.9022e-16
5776.48 1.0653e-15
5779.22 1.0978e-15
5781.97 1.2627e-15
5784.71 1.1642e-15
5787.45 1.1387e-15
5790.19 1.2749e-15
5792.93 1.262e-15
5795.67 1.2741e-15
5798.41 1.0211e-15
5801.15 1.0966e-15
5803.89 1.2084e-15
5806.63 1.1897e-15
5809.37 9.5401e-16
5812.11 1.0163e-15
5814.85 1.2318e-15
5817.59 1.1452e-15
5820.33 9.6228e-16
5823.07 1.0237e-15
5825.81 1.1651e-15
5828.55 1.0422e-15
5831.29 1.2068e-15
5834.04 1.1893e-15
5836.78 1.2151e-15
5839.52 1.6978e-15
5842.26 1.3624e-15
5845.0 1.5474e-15
5847.74 1.2847e-15
5850.48 1.1928e-15
5853.22 1.0835e-15
5855.96 1.0519e-15
5858.7 1.2542e-15
5861.44 1.0058e-15
5864.18 1.5886e-15
5866.92 1.4471e-15
5869.66 8.1527e-16
5872.4 2.0149e-15
5875.14 2.1902e-15
5877.88 1.895e-15
5880.62 1.4639e-15
5883.36 1.5552e-15
5886.1 9.9513e-16
5888.85 1.2425e-15
5891.59 7.5658e-16
5894.33 9.9715e-16
5897.07 1.2187e-15
5899.81 9.871e-16
5902.55 9.9602e-16
5905.29 1.0834e-15
5908.03 1.2687e-15
5910.77 9.4146e-16
5913.51 7.7871e-16
5916.25 1.0349e-15
5918.99 9.446e-16
5921.73 6.6811e-16
5924.47 1.2063e-15
5927.21 1.4025e-15
5929.95 1.275e-15
5932.69 1.0705e-15
5935.43 1.1513e-15
5938.17 1.0835e-15
5940.91 1.3617e-15
5943.66 1.0322e-15
5946.4 9.6868e-16
5949.14 1.0504e-15
5951.88 1.0208e-15
5954.62 1.0983e-15
5957.36 8.575e-16
5960.1 1.0364e-15
5962.84 1.4115e-15
5965.58 1.1996e-15
5968.32 1.0805e-15
5971.06 1.1419e-15
5973.8 1.2832e-15
5976.54 1.2937e-15
5979.28 8.501e-16
5982.02 8.5256e-16
5984.76 7.5771e-16
5987.5 1.2928e-15
5990.24 1.315e-15
5992.98 1.123e-15
5995.72 1.018e-15
5998.47 9.4425e-16
6001.21 1.0018e-15
6003.95 1.1307e-15
6006.69 9.8193e-16
6009.43 9.1581e-16
6012.17 1.2749e-15
6014.91 9.8201e-16
6017.65 8.8111e-16
6020.39 9.6415e-16
6023.13 1.0736e-15
6025.87 1.2229e-15
6028.61 1.0407e-15
6031.35 9.1364e-16
6034.09 1.2055e-15
6036.83 1.1955e-15
6039.57 1.2186e-15
6042.31 1.1346e-15
6045.05 9.9667e-16
6047.79 1.1868e-15
6050.53 1.1702e-15
6053.28 1.1549e-15
6056.02 1.1357e-15
6058.76 1.0829e-15
6061.5 1.0223e-15
6064.24 9.1264e-16
6066.98 1.0936e-15
6069.72 9.5426e-16
6072.46 9.7787e-16
6075.2 1.0862e-15
6077.94 1.0834e-15
6080.68 1.2165e-15
6083.42 1.059e-15
6086.16 1.1043e-15
6088.9 9.6068e-16
6091.64 1.0525e-15
6094.38 8.8577e-16
6097.12 9.5562e-16
6099.86 1.1295e-15
6102.6 1.1836e-15
6105.34 1.0299e-15
6108.09 9.8663e-16
6110.83 1.0892e-15
6113.57 1.1082e-15
6116.31 1.1204e-15
6119.05 1.1369e-15
6121.79 1.1049e-15
6124.53 1.2404e-15
6127.27 9.5557e-16
6130.01 1.0552e-15
6132.75 1.0544e-15
6135.49 1.0372e-15
6138.23 9.2874e-16
6140.97 8.4741e-16
6143.71 7.5987e-16
6146.45 9.5106e-16
6149.19 1.0108e-15
6151.93 1.1494e-15
6154.67 1.1095e-15
6157.41 1.0462e-15
6160.16 1.0494e-15
6162.9 1.0857e-15
6165.64 1.0703e-15
6168.38 9.0312e-16
6171.12 1.0184e-15
6173.86 1.1225e-15
6176.6 1.3045e-15
6179.34 1.0182e-15
6182.08 7.0645e-16
6184.82 1.32e-15
6187.56 1.0915e-15
6190.3 9.4724e-16
6193.04 9.943e-16
6195.78 9.2083e-16
6198.52 7.9441e-16
6201.26 1.1276e-15
6204.0 1.0014e-15
6206.74 1.2283e-15
6209.48 8.8601e-16
6212.22 1.0507e-15
6214.97 1.1333e-15
6217.71 7.2697e-16
6220.45 1.0306e-15
6223.19 1.0107e-15
6225.93 9.8476e-16
6228.67 7.7946e-16
6231.41 8.4971e-16
6234.15 9.3461e-16
6236.89 6.5029e-16
6239.63 1.0823e-15
6242.37 1.0199e-15
6245.11 7.3578e-16
6247.85 1.0707e-15
6250.59 9.3903e-16
6253.33 7.6484e-16
6256.07 8.5812e-16
6258.81 7.239e-16
6261.55 9.1515e-16
6264.29 9.2994e-16
6267.03 9.2619e-16
6269.78 8.5625e-16
6272.52 8.3572e-16
6275.26 1.1499e-15
6278.0 9.7138e-16
6280.74 6.5516e-16
6283.48 7.7983e-16
6286.22 5.8226e-16
6288.96 7.4233e-16
6291.7 7.1801e-16
6294.44 1.1487e-15
6297.18 1.1913e-15
6299.92 1.1663e-15
6302.66 1.2536e-15
6305.4 1.0579e-15
6308.14 1.0994e-15
6310.88 1.0845e-15
6313.62 1.1943e-15
6316.36 1.1609e-15
6319.1 9.6721e-16
6321.84 8.2533e-16
6324.59 1.1567e-15
6327.33 9.3597e-16
6330.07 1.08e-15
6332.81 9.8931e-16
6335.55 1.0423e-15
6338.29 8.983e-16
6341.03 8.2789e-16
6343.77 9.2202e-16
6346.51 9.7413e-16
6349.25 8.0894e-16
6351.99 8.8388e-16
6354.73 8.6606e-16
6357.47 1.0265e-15
6360.21 8.5469e-16
6362.95 1.0918e-15
6365.69 9.9551e-16
6368.43 8.4086e-16
6371.17 8.2138e-16
6373.91 8.7018e-16
6376.65 1.0682e-15
6379.4 7.1681e-16
6382.14 9.9289e-16
6384.88 7.9955e-16
6387.62 9.6215e-16
6390.36 1.1893e-15
6393.1 8.3604e-16
6395.84 8.5571e-16
6398.58 8.6512e-16
6401.32 1.2378e-15
6404.06 9.4862e-16
6406.8 8.8892e-16
6409.54 9.0366e-16
6412.28 7.9654e-16
6415.02 1.0483e-15
6417.76 1.0048e-15
6420.5 9.6379e-16
6423.24 9.7134e-16
6425.98 1.0662e-15
6428.72 8.3332e-16
6431.46 1.14e-15
6434.21 7.8998e-16
6436.95 7.5205e-16
6439.69 9.3868e-16
6442.43 8.1202e-16
6445.17 8.245e-16
6447.91 8.0158e-16
6450.65 6.6623e-16
6453.39 7.2158e-16
6456.13 9.8948e-16
6458.87 1.0815e-15
6461.61 1.1739e-15
6464.35 1.2412e-15
6467.09 9.5353e-16
6469.83 8.9273e-16
6472.57 1.0775e-15
6475.31 7.3384e-16
6478.05 1.1291e-15
6480.79 6.6952e-16
6483.53 7.127e-16
6486.28 8.7699e-16
6489.02 9.562e-16
6491.76 9.4319e-16
6494.5 1.2279e-15
6497.24 9.7805e-16
6499.98 9.0618e-16
6502.72 8.1191e-16
6505.46 9.5392e-16
6508.2 7.4151e-16
6510.94 9.7767e-16
6513.68 9.4416e-16
6516.42 1.0517e-15
6519.16 8.7787e-16
6521.9 8.6448e-16
6524.64 4.8904e-16
6527.38 1.0462e-15
6530.12 9.3057e-16
6532.86 1.0746e-15
6535.6 8.3404e-16
6538.34 9.5912e-16
6541.09 9.508e-16
6543.83 8.3682e-16
6546.57 1.104e-15
6549.31 1.435e-15
6552.05 2.1135e-15
6554.79 4.9141e-15
6557.53 1.491e-14
6560.27 3.0293e-14
6563.01 3.5434e-14
6565.75 2.508e-14
6568.49 9.6371e-15
6571.23 2.7623e-15
6573.97 1.5458e-15
6576.71 1.4049e-15
6579.45 1.4057e-15
6582.19 1.3973e-15
6584.93 1.287e-15
6587.67 1.0198e-15
6590.41 1.0225e-15
6593.15 8.3461e-16
6595.9 9.5698e-16
6598.64 9.2017e-16
6601.38 8.035e-16
6604.12 7.985e-16
6606.86 1.1224e-15
6609.6 8.4318e-16
6612.34 7.4507e-16
6615.08 7.3393e-16
6617.82 8.039e-16
6620.56 1.0705e-15
6623.3 1.017e-15
6626.04 8.662e-16
6628.78 9.3965e-16
6631.52 9.649e-16
6634.26 8.1399e-16
6637.0 1.0235e-15
6639.74 9.8538e-16
6642.48 7.0268e-16
6645.22 7.4678e-16
6647.96 1.1211e-15
6650.71 8.3743e-16
6653.45 5.7192e-16
6656.19 5.2937e-16
6658.93 7.4322e-16
6661.67 6.6709e-16
6664.41 7.2024e-16
6667.15 7.9636e-16
6669.89 5.8609e-16
6672.63 9.3275e-16
6675.37 1.1165e-15
6678.11 1.2178e-15
6680.85 9.7583e-16
6683.59 1.0168e-15
6686.33 9.4915e-16
6689.07 7.9543e-16
6691.81 7.8759e-16
6694.55 7.8699e-16
6697.29 7.1033e-16
6700.03 7.546e-16
6702.77 9.2938e-16
6705.52 8.9215e-16
6708.26 9.5512e-16
6711.0 1.4015e-15
6713.74 1.7619e-15
6716.48 1.6735e-15
6719.22 1.5151e-15
6721.96 1.2627e-15
6724.7 9.4964e-16
6727.44 1.2785e-15
6730.18 1.578e-15
6732.92 1.2889e-15
6735.66 1.022e-15
6738.4 8.072e-16
6741.14 1.0587e-15
6743.88 8.0277e-16
6746.62 6.4205e-16
6749.36 8.4301e-16
6752.1 7.2196e-16
6754.84 7.2952e-16
6757.58 9.5588e-16
6760.33 9.0726e-16
6763.07 1.0432e-15
6765.81 9.9868e-16
6768.55 1.2341e-15
6771.29 7.9785e-16
6774.03 8.2993e-16
6776.77 8.9348e-16
6779.51 8.9216e-16
6782.25 9.6903e-16
6784.99 6.0265e-16
6787.73 8.2681e-16
6790.47 7.816e-16
6793.21 7.898e-16
6795.95 7.5862e-16
6798.69 7.8431e-16
6801.43 8.9284e-16
6804.17 8.7844e-16
6815.5 8.5894e-16
6831.21 8.6685e-16
6846.96 8.3353e-16
6862.74 8.3927e-16
6878.56 8.2772e-16
6894.42 8.2767e-16
6910.32 8.2383e-16
6926.24 8.2379e-16
6942.21 8.3329e-16
6958.22 8.2182e-16
6974.25 8.3898e-16
6990.33 8.3317e-16
7006.44 8.067e-16
7022.6 7.9011e-16
7038.79 8.2161e-16
7055.01 8.3492e-16
7071.28 7.8636e-16
7087.58 8.1396e-16
7103.91 7.881e-16
7120.29 7.7904e-16
7136.71 7.5951e-16
7153.16 7.736e-16
7169.65 7.6823e-16
7186.18 7.4554e-16
7202.74 7.4037e-16
7219.34 7.7166e-16
7235.99 7.6807e-16
7252.67 7.4883e-16
7269.39 7.4535e-16
7286.15 7.4359e-16
7302.94 7.6792e-16
7319.77 7.556e-16
7336.65 7.6431e-16
7353.56 7.6603e-16
7370.51 7.4683e-16
7387.5 7.6772e-16
7404.54 7.6415e-16
7421.6 7.3647e-16
7438.71 7.484e-16
7455.86 7.5181e-16
7473.05 7.5698e-16
7490.27 7.4313e-16
7507.54 7.4996e-16
7524.85 7.5861e-16
7542.19 7.5508e-16
7559.58 7.4297e-16
7577.01 7.3273e-16
7594.47 7.2598e-16
7611.98 7.1269e-16
7629.53 7.1594e-16
7647.12 7.1097e-16
7664.74 7.0118e-16
7682.42 6.8993e-16
7700.13 6.8989e-16
7717.87 6.9145e-16
7735.67 6.8349e-16
7753.5 6.7563e-16
7771.37 6.8499e-16
7789.29 6.7245e-16
7807.25 6.6933e-16
7825.24 6.8963e-16
7843.28 6.6925e-16
7861.36 6.8009e-16
7879.48 6.7537e-16
7897.65 6.8001e-16
7915.86 6.6144e-16
7934.1 6.5384e-16
7952.39 6.2726e-16
7970.73 6.4628e-16
7989.1 6.4922e-16
8007.51 6.3734e-16
8025.97 6.5818e-16
8044.48 6.6271e-16
8063.02 6.5508e-16
8081.61 6.3573e-16
8100.24 6.1129e-16
8118.91 6.4301e-16
8137.63 6.4298e-16
8156.39 6.1968e-16
8175.19 6.2394e-16
8194.03 6.1111e-16
8212.92 6.311e-16
8231.86 6.1245e-16
8250.83 6.2093e-16
8269.85 6.3976e-16
8288.92 6.1234e-16
8308.02 6.1372e-16
8327.18 6.0945e-16
8346.37 6.0244e-16
8365.61 6.1079e-16
8384.9 5.9411e-16
8404.23 6.0512e-16
8423.6 5.954e-16
8443.02 5.7251e-16
8462.48 6.0223e-16
8481.99 5.9667e-16
8501.54 5.9801e-16
8521.14 5.8436e-16
8540.79 5.9109e-16
8560.47 5.6837e-16
8580.21 5.9375e-16
8599.99 5.6569e-16
8619.81 5.6826e-16
8639.68 5.882e-16
8659.6 5.604e-16
8679.56 5.3024e-16
8699.57 5.4883e-16
8719.62 5.7599e-16
8739.73 5.7199e-16
8759.87 5.0858e-16
8780.06 5.6537e-16
8800.31 5.6664e-16
8820.59 5.7449e-16
8840.93 5.7049e-16
8861.3 5.4353e-16
8881.74 5.2505e-16
8902.21 5.4597e-16
8922.73 5.5099e-16
8943.3 5.5477e-16
8963.92 5.3099e-16
8984.58 5.3096e-16
9005.29 5.4832e-16
9026.05 4.3853e-16
9046.86 5.6231e-16
9067.72 5.6227e-16
9088.62 5.069e-16
9109.57 5.2106e-16
9130.57 5.481e-16
9151.62 5.2461e-16
9172.71 5.2943e-16
9193.86 5.1615e-16
9215.05 5.185e-16
9236.3 4.6636e-16
9257.58 5.0314e-16
9278.93 5.3538e-16
9300.32 5.1125e-16
9321.76 5.2312e-16
9343.24 5.2189e-16
9364.79 5.1469e-16
9386.37 5.1703e-16
9408.01 5.0756e-16
9429.7 5.1577e-16
9451.44 5.0984e-16
9473.22 5.1452e-16
9495.06 5.1212e-16
9516.95 5.0043e-16
9538.89 4.9126e-16
9560.88 4.5844e-16
9582.92 5.0148e-16
9605.01 4.9685e-16
9627.15 4.9681e-16
9649.35 4.9336e-16
9671.59 4.9106e-16
9693.88 4.9329e-16
9716.23 4.8761e-16
9738.63 4.8311e-16
9761.08 4.8085e-16
9783.58 4.7532e-16
9806.13 4.7968e-16
9828.74 4.7635e-16
9851.39 4.7522e-16
9874.11 4.7191e-16
9896.87 4.6971e-16
9919.68 4.686e-16
9942.55 4.6749e-16
9965.47 4.6638e-16
9988.44 4.6313e-16
10034.54 4.5045e-16
10080.87 4.3912e-16
10127.39 4.524e-16
10174.14 4.4715e-16
10221.11 4.4606e-16
10268.28 4.4395e-16
10291.95 4.4086e-16
10507.45 4.2073e-16
10702.81 3.9884e-16
10901.79 3.7307e-16
11104.47 3.6124e-16
11310.91 3.4817e-16
11494.7 3.4025e-16
11708.41 3.2794e-16
11898.66 3.1318e-16
12091.99 3.0395e-16
12288.47 2.9498e-16
12488.14 2.8497e-16
12691.06 2.7529e-16
12897.27 2.6595e-16
13106.83 2.593e-16
13289.17 2.4934e-16
13505.1 2.4255e-16
13692.97 2.3539e-16
13915.47 2.2688e-16
14109.05 2.1717e-16
14305.33 2.1174e-16
14504.34 2.0931e-16
14706.11 2.0267e-16
14910.7 2.0174e-16
15083.34 1.9943e-16
15293.17 1.9943e-16
15505.93 1.9715e-16
15685.48 1.9134e-16
15903.69 1.8315e-16
16087.85 1.8315e-16
16311.65 1.8188e-16
16500.52 1.7693e-16
16691.59 1.749e-16
16884.87 1.7014e-16
17080.4 1.6665e-16
17317.99 1.5878e-16
17518.53 1.5445e-16
17680.64 1.4818e-16
17885.37 1.4217e-16
18092.46 1.3452e-16
18301.96 1.3086e-16
18513.9 1.2641e-16
18685.19 1.1989e-16
18901.56 1.169e-16
19120.44 1.1476e-16
19297.36 1.1087e-16
19520.8 1.0612e-16
19701.43 1.0299e-16
19883.74 9.9953e-17
20113.96 9.7903e-17
20300.08 9.4362e-17
20487.93 9.2853e-17
20677.48 9.0323e-17
20916.92 8.8064e-17
21110.47 8.6257e-17
21305.79 8.4294e-17
21502.94 8.2186e-17
21701.89 7.9031e-17
21902.71 7.7767e-17
22105.38 7.5474e-17
22309.9 7.3248e-17
22516.34 7.1416e-17
22724.67 6.947e-17
22882.2 6.2632e-17
23093.91 6.2201e-17
23307.61 5.4802e-17
23523.28 5.1499e-17
23686.33 5.2095e-17
23905.5 4.7731e-17
24126.68 4.611e-17
24293.93 4.5582e-17
24518.71 4.2247e-17
24688.68 4.1572e-17
24917.1 3.6542e-17
25089.84 3.6207e-17
25322.0 3.6041e-17
25497.51 3.5383e-17
25674.24 3.5465e-17
25911.81 3.4498e-17
26091.44 3.4261e-17
26272.28 3.325e-17
26515.39 3.2945e-17
26699.17 3.2048e-17
26884.25 3.1608e-17
27070.59 3.1103e-17
27321.09 3.0325e-17
27510.45 2.9771e-17
27701.13 2.9027e-17
27893.16 2.8628e-17
28086.5 2.7977e-17
28281.2 2.7466e-17
28477.22 2.6903e-17
28674.63 2.617e-17
28873.38 2.581e-17
29073.54 2.5339e-17
29275.05 2.4763e-17
29478.0 2.4199e-17
29682.31 2.3812e-17
29888.08 2.327e-17
30095.24 2.2845e-17
30303.83 2.2274e-17
30513.91 2.1968e-17
30725.41 2.1667e-17
30867.25 2.1271e-17
31081.2 2.0883e-17
31296.66 2.0549e-17
31513.58 2.0174e-17
31732.01 1.9806e-17
31878.5 1.9489e-17
32099.46 1.9178e-17
32321.98 1.8828e-17
32471.16 1.8527e-17
32696.22 1.8188e-17
32922.88 1.7815e-17
33074.83 1.7611e-17
33304.12 1.725e-17
33534.95 1.6935e-17
33689.73 1.6588e-17
33923.28 1.6285e-17
34079.85 1.5951e-17
34316.1 1.5696e-17
34474.49 1.541e-17
34713.44 1.5094e-17
34873.69 1.4818e-17
35115.41 1.4548e-17
35277.48 1.4249e-17
35522.03 1.3989e-17
35685.98 1.3734e-17
35933.37 1.3483e-17
36099.22 1.3237e-17
36265.83 1.2996e-17
36517.24 1.2729e-17
36685.78 1.2497e-17
36940.05 1.2212e-17
37110.59 1.1989e-17
37281.87 1.1771e-17
37540.32 1.1476e-17
37713.59 1.1371e-17
37887.65 1.1163e-17
38062.52 1.096e-17
38326.38 1.0784e-17
38503.27 1.0612e-17
38681.03 1.0418e-17
38859.56 1.0228e-17
39128.9 1.0041e-17
39309.54 9.9037e-18
39490.97 9.7005e-18
39673.24 9.5454e-18
39856.39 9.3497e-18
40132.65 9.2002e-18
40317.88 9.0739e-18
40504.01 8.9083e-18
40690.95 8.8063e-18
40878.76 8.6655e-18
41067.43 8.5467e-18
41257.02 8.4294e-18
41542.98 8.2946e-18
41734.77 8.162e-18
41927.39 8.0686e-18
42120.91 7.9579e-18
42315.31 7.8668e-18
42510.67 7.7588e-18
42706.87 7.67e-18
42903.98 7.3756e-18
43102.05 7.1252e-18
43300.99 7.1416e-18
43500.84 6.8992e-18
43701.66 6.7577e-18
43903.37 6.6803e-18
44106.0 6.4535e-18
44309.57 6.4239e-18
44514.13 6.3357e-18
44719.58 6.1773e-18
44925.98 6.2058e-18
45133.39 6.1066e-18
45341.7 5.9813e-18
45550.97 5.9951e-18
45655.97 5.9538e-18
45866.74 5.8183e-18
46078.44 5.8586e-18
46291.11 5.7782e-18
46504.81 5.7253e-18
46719.46 5.7253e-18
46935.09 5.6859e-18
47151.77 5.6337e-18
47260.45 5.6597e-18
47478.58 5.6078e-18
47697.72 5.5821e-18
47917.92 5.5564e-18
48139.08 5.4928e-18
48250.04 5.5309e-18
48472.74 5.4928e-18
48696.52 5.4425e-18
48921.27 5.4425e-18
49147.07 5.405e-18
49260.36 5.3926e-18
49487.77 5.3678e-18
49716.18 5.3802e-18
49945.64 5.345e-18
50060.82 5.3348e-18
50291.88 5.3021e-18
50524.0 5.2453e-18
50757.19 5.2248e-18
50874.24 5.2146e-18
50991.51 5.1923e-18
51109.05 5.1701e-18
51226.86 5.1598e-18
51344.94 5.1377e-18
51463.3 5.1274e-18
51581.98 5.1288e-18
51700.88 5.1302e-18
51820.05 5.1198e-18
51939.5 5.0976e-18
52059.22 5.0872e-18
52179.23 5.0767e-18
52299.5 5.0662e-18
52420.11 5.0557e-18
52540.95 5.0567e-18
52662.06 5.0578e-18
52783.45 5.0471e-18
52905.12 5.0249e-18
53027.07 5.0027e-18
53149.36 4.992e-18
53271.87 4.9928e-18
53394.66 4.9935e-18
53517.74 4.9828e-18
53641.11 4.9719e-18
53764.75 4.9725e-18
53888.68 4.9616e-18
54012.96 4.9621e-18
54137.46 4.9626e-18
54262.25 4.9402e-18
54387.33 4.9405e-18
54512.7 4.9408e-18
54638.35 4.9297e-18
54764.3 4.9185e-18
54890.6 4.9187e-18
55017.12 4.9188e-18
55143.94 4.9075e-18
55271.05 4.9188e-18
55398.45 4.9187e-18
55526.15 4.896e-18
55654.21 4.9071e-18
55782.49 4.9069e-18
55911.08 4.8953e-18
56039.95 4.895e-18
56169.13 4.8946e-18
56298.61 4.8942e-18
56428.38 4.8824e-18
56558.51 4.8931e-18
56688.88 4.8925e-18
56819.55 4.8806e-18
56950.53 4.8799e-18
57081.8 4.8791e-18
57213.38 4.8895e-18
57345.32 4.8886e-18
57477.51 4.8877e-18
57610.0 4.8866e-18
57742.79 4.8856e-18
57875.89 4.8844e-18
58009.3 4.8833e-18
58143.02 4.882e-18
58277.1 4.8807e-18
58411.44 4.8793e-18
58546.08 4.8891e-18
58681.03 4.8764e-18
58816.3 4.8861e-18
58951.87 4.8845e-18
59225.28 4.3769e-18
59526.74 5.7032e-18
59828.09 6.0082e-18
60129.45 3.0783e-18
60430.81 5.063e-18
60732.16 5.3073e-18
61033.62 7.2874e-18
61334.97 5.2596e-18
61636.33 3.1837e-18
61937.69 5.1577e-18
62239.04 2.9199e-18
62540.5 1.496e-18
62841.85 4.1702e-18
63143.21 2.9201e-18
63444.56 2.0157e-18
63745.92 1.3138e-18
64047.38 3.5735e-18
64348.73 8.9742e-18
64650.09 4.5536e-18
64951.44 4.0539e-18
65252.8 6.51e-18
65554.25 4.2253e-18
65855.61 3.7277e-18
66156.96 1.9296e-19
66458.32 4.8419e-18
66759.68 2.9304e-18
67061.13 4.2991e-18
67362.49 3.4033e-18
67663.85 5.0003e-18
67965.2 4.8777e-18
68266.56 5.6114e-18
68568.01 2.2261e-18
68869.37 6.601e-18
69170.72 6.4932e-18
69472.08 3.1935e-18
69773.44 8.5995e-18
70074.89 9.9323e-18
70376.25 7.4115e-18
70677.6 2.7836e-18
70978.96 6.9449e-18
71280.31 4.0427e-18
71581.77 4.5444e-18
71883.13 8.1605e-18
72184.48 6.9753e-18
72485.84 7.1413e-18
72787.19 5.7558e-18
73088.65 2.857e-18
73390.0 3.3376e-18
73691.36 6.1653e-18
73992.72 3.895e-18
74294.07 1.0394e-17
74595.53 1.3161e-17
74896.88 7.6192e-18
75198.23 5.2966e-18
75499.59 4.1432e-18
76102.31 6.5881e-18
76705.12 7.177e-18
77307.82 5.5263e-18
77910.54 5.2026e-18
78513.35 8.4307e-18
79116.07 7.2667e-18
79718.88 7.5369e-18
80321.58 6.4892e-18
80924.3 5.7711e-18
81527.1 5.8268e-18
82129.82 6.609e-18
82732.53 6.707e-18
83335.34 6.0848e-18
83938.05 6.5457e-18
84540.76 7.5162e-18
85143.58 7.3727e-18
85746.29 7.1135e-18
86349.11 7.5566e-18
86951.81 6.1078e-18
87554.53 5.7328e-18
88157.34 6.8229e-18
88760.05 7.0713e-18
89362.76 6.6854e-18
89965.57 8.5675e-18
90568.28 7.9721e-18
91170.99 6.9889e-18
91773.8 7.4059e-18
92376.52 8.2321e-18
92979.33 8.1606e-18
93582.04 7.6012e-18
94184.75 8.0075e-18
94787.55 7.117e-18
95390.27 7.5843e-18
95992.99 8.3862e-18
96595.8 9.1805e-18
97198.5 7.8315e-18
97801.21 7.9812e-18
98404.03 8.3697e-18
99006.75 8.0619e-18
99609.56 8.1501e-18
100212.26 8.8482e-18
100814.98 8.8733e-18
101417.79 8.8327e-18
102020.5 8.6967e-18
102623.22 8.6092e-18
103226.02 9.2166e-18
103828.73 8.3685e-18
104431.44 1.8101e-17
105034.25 4.3069e-17
105636.97 3.1251e-17
106239.79 7.4024e-18
106842.49 8.8146e-18
107445.2 9.4188e-18
108048.02 1.0373e-17
108650.73 9.7833e-18
109253.44 9.2436e-18
109856.25 1.1347e-17
110458.96 1.0665e-17
111061.68 1.0151e-17
111664.48 1.1118e-17
112267.2 1.2133e-17
112870.01 1.1552e-17
113472.72 1.1462e-17
114075.43 1.1174e-17
114678.24 1.1614e-17
115280.95 1.1573e-17
115883.67 1.185e-17
116486.47 1.3091e-17
117089.18 1.2298e-17
117691.89 1.2314e-17
118294.7 1.2409e-17
118897.42 1.3843e-17
119500.24 1.3254e-17
120102.94 1.3274e-17
120705.65 1.3624e-17
121308.47 1.3302e-17
121911.18 1.4438e-17
122513.9 1.4167e-17
123116.7 1.4291e-17
123719.41 1.5221e-17
124322.13 1.5153e-17
124924.93 1.449e-17
125527.65 1.5281e-17
126130.46 1.4895e-17
126733.17 1.5339e-17
127335.88 1.6692e-17
127938.69 1.7887e-17
128541.4 1.7437e-17
129144.12 1.6743e-17
129746.93 1.6769e-17
130349.64 1.6532e-17
130952.34 1.7081e-17
131555.16 1.7296e-17
132157.87 1.733e-17
132760.58 1.7553e-17
133363.4 1.7501e-17
133966.1 1.7517e-17
134568.92 1.7962e-17
135171.63 1.8296e-17
135774.34 1.8328e-17
136377.16 1.8386e-17
136979.86 1.7883e-17
137582.57 1.8317e-17
138185.39 1.8453e-17
138788.1 1.8348e-17
139390.81 1.9762e-17
139993.63 1.8798e-17
140596.33 1.8471e-17
141199.15 1.8307e-17
141801.86 1.8269e-17
142404.57 1.7694e-17
143007.39 1.7038e-17
143610.09 1.5571e-17
144212.8 1.5263e-17
145270.73 1.7936e-17
146114.62 1.9908e-17
146958.49 1.8326e-17
147802.36 1.8488e-17
148646.14 1.7418e-17
149490.02 1.7218e-17
150333.89 1.5788e-17
151177.67 2.0836e-17
152021.54 1.6796e-17
152865.42 1.6346e-17
153709.19 1.828e-17
154553.07 1.9992e-17
155396.96 2.8898e-17
156240.74 2.7097e-17
157084.61 1.6156e-17
157928.48 1.6851e-17
158772.24 1.5917e-17
159616.13 1.5233e-17
160460.01 1.5642e-17
161303.88 1.7626e-17
162147.66 1.9273e-17
162991.55 1.755e-17
163835.4 1.7463e-17
164679.2 1.7298e-17
165523.06 1.6051e-17
166366.93 1.6194e-17
167210.72 1.7766e-17
168054.58 1.6413e-17
168898.47 1.6446e-17
169742.23 1.5326e-17
170586.12 1.6057e-17
171430.0 1.7849e-17
172273.76 1.714e-17
173117.65 1.6599e-17
173961.52 1.5196e-17
174805.39 1.6585e-17
175649.17 1.7077e-17
176493.06 1.7139e-17
177336.92 1.611e-17
178180.71 1.6657e-17
179024.59 1.7614e-17
179868.46 1.6852e-17
180712.24 1.7027e-17
181556.1 1.6587e-17
182399.98 1.8298e-17
183243.76 1.9145e-17
184087.64 1.9866e-17
184931.51 1.8323e-17
185775.27 1.9367e-17
186619.16 2.5915e-17
187463.05 2.3747e-17
188306.92 1.9984e-17
189150.69 1.9852e-17
189994.58 1.8552e-17
190838.43 1.8699e-17
191682.23 1.7583e-17
192526.1 1.9557e-17
193369.97 1.824e-17
194213.75 1.7448e-17
195057.64 1.7044e-17
195901.5 1.6577e-17
196745.28 1.7151e-17
197589.15 1.7433e-17
198433.02 1.8358e-17
199276.82 1.829e-17
200120.68 1.6634e-17
200964.56 1.8243e-17
201808.44 1.7339e-17
202652.2 1.7813e-17
203496.09 1.6728e-17
205183.74 1.8589e-17
206871.49 1.7891e-17
208559.16 1.6708e-17
210246.79 1.7096e-17
211934.54 1.7814e-17
213622.19 1.6917e-17
215309.95 1.6641e-17
216997.6 1.7233e-17
218685.26 1.7542e-17
220373.02 1.799e-17
222060.67 1.7581e-17
223748.31 1.7771e-17
225436.05 1.7799e-17
227123.72 1.7134e-17
228811.47 1.6335e-17
230499.12 1.5576e-17
232186.77 1.6341e-17
233874.53 1.7327e-17
235562.18 1.6412e-17
237249.84 1.708e-17
238937.57 1.6665e-17
240625.23 1.671e-17
242312.98 1.6862e-17
244000.63 1.5793e-17
245688.28 1.7022e-17
247376.05 1.7125e-17
249063.7 1.7141e-17
250751.35 1.6949e-17
252439.11 1.6929e-17
254126.76 1.7214e-17
255814.49 1.6859e-17
257502.15 1.6974e-17
259189.8 1.7334e-17
260877.56 1.6733e-17
262565.21 1.7113e-17
264252.86 1.6656e-17
265940.61 1.6577e-17
267628.26 1.668e-17
269316.01 1.6484e-17
271003.66 1.6706e-17
272691.34 1.698e-17
274379.09 1.6852e-17
276066.71 1.6859e-17
277754.36 1.6869e-17
279442.14 1.6718e-17
281129.79 1.6388e-17
282817.54 1.6307e-17
284505.19 1.6807e-17
286192.84 1.6346e-17
287880.59 1.619e-17
289568.24 1.6711e-17
291255.89 1.6127e-17
292943.64 1.6009e-17
294631.29 1.5637e-17
296319.04 1.5684e-17
298006.72 1.6396e-17
299694.37 1.6234e-17
301382.12 1.6002e-17
303069.77 1.5891e-17
304757.42 1.5919e-17
306445.17 1.6911e-17
308132.82 1.6697e-17
309820.57 1.6541e-17
311508.22 1.673e-17
313195.87 1.6481e-17
314883.62 1.6307e-17
316571.3 1.612e-17
318258.95 1.646e-17
319946.7 1.58e-17
321634.32 1.5624e-17
323322.1 1.5727e-17
325009.75 1.5798e-17
326697.4 1.6492e-17
328385.15 1.7014e-17
330072.8 1.6386e-17
331760.45 1.7037e-17
333448.23 1.8756e-17
335135.88 1.8495e-17
336823.59 1.8774e-17
338511.25 1.7435e-17
340198.93 1.7299e-17
341886.64 1.6744e-17
343574.3 1.7263e-17
345261.95 1.7075e-17
346949.73 1.9042e-17
348637.35 1.9552e-17
