#  ----------------------------------------------------------------------------------
# SpeX prism spectrum of 2MASS J00335534-0908247 (J00335534-0908247)
# Originally observed on 2003 Sep 19
# Average resolution = 120
# Originally published in Burgasser et al. (2004) AJ, 127, 2856
#
# PLEASE CITE THE ORIGINAL DATA REFERENCE WHEN PUBLISHING OR PRESENTING THESE DATA
#
# Near infrared spectral type: M7
# J magnitude = 15.958
# H magnitude = 15.001
# Ks magnitude = 15.243
#
#  Wavelength (micron)   F_lambda (normalized)  Noise (normalized as F_lambda)
#  ----------------------------------------------------------------------------------
0.658364	0.377892	0.0899706
0.660547	-0.0330813	0.00000
0.662722	-0.0967276	0.00000
0.664891	0.0945505	0.0807075
0.667053	0.180996	0.336488
0.669212	0.223943	0.0779911
0.671366	0.235833	0.153126
0.673517	-0.129824	0.00000
0.675666	0.417543	0.165845
0.677813	0.220681	0.0771774
0.679960	-0.00234809	0.00000
0.682107	0.0840929	0.0945554
0.684255	-0.0125160	0.00000
0.686404	0.0743041	0.172792
0.688556	-0.0746345	0.00000
0.690711	0.0733792	0.0589799
0.692869	0.0293810	0.125163
0.695032	0.0484859	0.133212
0.697200	-0.0281618	0.00000
0.699374	0.132135	0.139530
0.701554	0.109206	0.159070
0.703740	0.307068	0.105811
0.705935	0.154311	0.00655408
0.708137	0.0475111	0.0405475
0.710347	0.00859412	0.198514
0.712567	0.0962136	0.00464277
0.714796	-0.0130903	0.00000
0.717036	0.0267993	0.0861778
0.719286	0.00123101	0.0656876
0.721547	0.0602020	0.144910
0.723819	0.0586781	0.105409
0.726103	0.0764961	0.0273173
0.728400	0.244033	0.0204178
0.730710	0.196866	0.0823579
0.733032	0.265276	0.0767076
0.735368	0.186214	0.0716996
0.737718	0.266615	0.00699348
0.740083	0.265641	0.0421338
0.742461	0.263851	0.121404
0.744855	0.345812	0.0817423
0.747264	0.376445	0.0352157
0.749688	0.289511	0.00934233
0.752129	0.303036	0.0504534
0.754585	0.335869	0.0667170
0.757058	0.376432	0.0190797
0.759547	0.364723	0.0655811
0.762054	0.250265	0.0630093
0.764577	0.0673850	0.0890914
0.767118	0.0443031	0.0551003
0.769676	0.0821085	0.0270564
0.772252	0.0780993	0.00739997
0.774846	0.152930	0.0305788
0.777458	0.0965614	0.0143040
0.780088	0.163854	0.0496082
0.782736	0.157247	0.0523563
0.785403	0.183796	0.0500499
0.788089	0.248865	0.0297184
0.790794	0.175125	0.0766808
0.793518	0.277001	0.00990433
0.796260	0.223490	0.0128959
0.799022	0.281885	0.0303574
0.801804	0.398622	0.0368664
0.804604	0.489537	0.0426307
0.807424	0.464184	0.0210647
0.810263	0.547274	0.0468970
0.813122	0.623045	0.0238791
0.816001	0.545076	0.0454503
0.818899	0.586211	0.00632612
0.821816	0.505267	0.0174242
0.824754	0.517906	0.0228782
0.827711	0.526714	0.0631189
0.830688	0.579748	0.0198439
0.833684	0.499915	0.00946829
0.836701	0.431563	0.0251049
0.839737	0.472554	0.0191292
0.842792	0.408476	0.0241248
0.845868	0.364171	0.00972799
0.848962	0.297859	0.0163001
0.852077	0.315274	0.0254489
0.855211	0.399475	0.0169227
0.858365	0.406964	0.0229121
0.861538	0.432893	0.0188302
0.864730	0.437605	0.0611193
0.867942	0.404375	0.0209686
0.871173	0.501132	0.00775548
0.874423	0.514070	0.0144979
0.877693	0.577246	0.0293849
0.880981	0.583480	0.0252615
0.884288	0.598308	0.0187426
0.887614	0.632817	0.0193987
0.890959	0.576554	0.0130615
0.894322	0.611198	0.00173097
0.897704	0.669941	0.0239799
0.901105	0.660361	0.0146245
0.904523	0.691956	0.0317478
0.907960	0.729330	0.00662552
0.911415	0.755871	0.0283880
0.914887	0.827433	0.0166763
0.918377	0.830774	0.0111753
0.921885	0.808652	0.0107159
0.925411	0.814368	0.0250307
0.928954	0.793930	0.0294645
0.932514	0.740171	0.0357845
0.936091	0.770784	0.0205737
0.939684	0.793933	0.0271125
0.943295	0.808607	0.0167338
0.946922	0.834389	0.0347079
0.950565	0.856183	0.0325829
0.954225	0.839209	0.00398663
0.957901	0.825311	0.0247280
0.961592	0.813897	0.00779095
0.965300	0.861540	0.0201885
0.969022	0.875042	0.0204179
0.972761	0.867357	0.0115278
0.976514	0.878586	0.0347914
0.980282	0.876162	0.0135460
0.984065	0.873923	0.0181253
0.987863	0.842644	0.00792913
0.991675	0.824864	0.00181574
0.995501	0.835441	0.00774237
0.999341	0.810185	0.00226671
1.00320	0.865521	0.0153689
1.00706	0.835887	0.0126008
1.01094	0.885124	0.0133823
1.01484	0.915923	0.0191124
1.01875	0.904264	0.0116959
1.02267	0.890506	0.0398267
1.02660	0.869650	0.0130914
1.03054	0.895637	0.00982009
1.03450	0.927402	0.00933394
1.03847	0.937476	0.0242818
1.04245	0.988076	0.00325149
1.04645	0.940821	0.00345740
1.05045	0.942914	0.00385406
1.05447	0.925440	0.00582481
1.05849	0.918497	0.0101401
1.06253	0.936817	0.00895901
1.06658	0.962626	0.0146692
1.07064	0.982908	0.0106581
1.07471	0.979276	0.00634896
1.07878	0.994744	0.0140751
1.08287	1.05871	0.00291467
1.08697	1.04908	0.00734277
1.09108	1.00799	0.00503081
1.09519	0.995782	0.00112119
1.09932	0.995090	0.00597709
1.10345	0.958271	0.0137681
1.10759	0.981832	0.00852055
1.11174	0.996310	0.00519612
1.11590	0.928222	0.00341680
1.12007	0.993658	0.0149106
1.12424	0.942817	0.00728556
1.12842	0.974732	0.0144960
1.13261	0.880492	0.00548091
1.13681	0.847951	0.0230127
1.14101	0.851291	0.0127814
1.14522	0.862235	0.0164661
1.14943	0.944962	0.00686765
1.15365	0.925885	0.0114650
1.15788	0.947417	0.00976977
1.16211	0.938402	0.0102361
1.16635	0.902167	0.0152893
1.17060	0.875370	0.0173075
1.17484	0.884969	0.00300761
1.17910	0.890126	0.0124648
1.18336	0.881722	0.00425918
1.18762	0.906163	0.00362735
1.19189	0.873700	0.0125386
1.19616	0.890500	0.00127775
1.20044	0.869979	0.00853808
1.20472	0.868484	0.00761020
1.20900	0.879557	0.0241695
1.21329	0.908183	0.0137866
1.21758	0.918127	0.00436858
1.22187	0.946894	0.0130098
1.22617	0.908607	0.00557393
1.23047	0.941864	0.00356602
1.23477	0.897036	0.0114129
1.23907	0.891373	0.0118808
1.24338	0.882458	0.00880872
1.24768	0.859019	0.00864490
1.25199	0.881814	0.00648598
1.25631	0.900634	0.00379617
1.26062	0.912752	0.00258230
1.26493	0.930014	0.0126703
1.26925	0.943131	0.0139389
1.27356	0.960355	0.0234098
1.27788	0.940471	0.00477923
1.28220	0.905215	0.00871858
1.28651	0.934134	0.0211017
1.29083	0.960753	0.0208318
1.29515	0.958674	0.0144686
1.29947	0.932703	0.00980995
1.30379	0.931952	0.00227392
1.30810	0.924083	0.0111667
1.31242	0.873449	0.00889095
1.31674	0.904241	0.00764143
1.32105	0.905560	0.0157908
1.32537	0.891242	0.000759435
1.32968	0.836135	0.0200133
1.33399	0.762439	0.00354717
1.33830	0.717696	0.00796652
1.34261	0.692668	0.00596629
1.34692	0.671828	0.0217701
1.35123	0.685880	0.0141859
1.35553	0.737627	0.0171877
1.35983	0.626432	0.0262541
1.36413	0.693042	0.0373511
1.36843	0.683221	0.0425280
1.37273	0.605092	0.0513220
1.37702	0.660699	0.0121264
1.38131	0.591230	0.0106447
1.38560	0.635462	0.0489532
1.38988	0.624361	0.0259594
1.39416	0.570071	0.00434049
1.39844	0.564365	0.0121026
1.40271	0.600978	0.0186792
1.40698	0.521986	0.0231482
1.41125	0.523197	0.0184850
1.41552	0.537861	0.0118745
1.41978	0.538094	0.00830542
1.42403	0.532780	0.0163614
1.42829	0.533269	0.0136505
1.43254	0.527251	0.0117034
1.43678	0.513714	0.0102830
1.44102	0.528175	0.000826825
1.44526	0.540231	0.0132440
1.44949	0.506385	0.00242310
1.45372	0.525185	0.0143921
1.45794	0.514814	0.00573242
1.46216	0.536889	0.00111366
1.46637	0.550465	0.00463202
1.47058	0.530856	0.00783098
1.47479	0.511541	0.0130532
1.47899	0.513870	0.00411465
1.48318	0.518264	0.00748914
1.48737	0.503170	0.00455028
1.49155	0.509899	0.00275420
1.49573	0.537384	0.00711861
1.49991	0.545527	0.00687549
1.50408	0.566858	0.00614459
1.50824	0.540444	0.0162242
1.51240	0.478913	0.000967730
1.51655	0.532857	0.00645822
1.52069	0.541865	0.0165469
1.52483	0.533334	0.0111870
1.52897	0.511774	0.0149062
1.53310	0.546309	0.00537198
1.53722	0.551988	0.0240054
1.54134	0.560619	0.0145040
1.54545	0.550755	0.0199592
1.54956	0.556713	0.00509325
1.55366	0.561092	0.0133118
1.55775	0.545830	0.00632176
1.56184	0.554514	0.0234559
1.56592	0.563745	0.0132382
1.57000	0.581124	0.0102929
1.57407	0.553430	0.0144995
1.57813	0.595376	0.00579228
1.58219	0.573224	0.00849035
1.58624	0.591174	0.0148854
1.59028	0.575920	0.0221916
1.59432	0.574181	0.00584642
1.59835	0.587086	0.0144233
1.60238	0.591718	0.00748719
1.60639	0.568540	0.0145806
1.61041	0.568393	0.00231448
1.61441	0.597343	0.00171819
1.61841	0.569379	0.0134030
1.62241	0.609789	0.00618743
1.62639	0.591049	0.0153231
1.63037	0.599365	0.0117295
1.63435	0.591543	0.0146163
1.63831	0.578297	0.00991682
1.64227	0.604555	0.0135660
1.64623	0.622353	0.0139440
1.65018	0.596700	0.0104162
1.65412	0.599765	0.00961039
1.65805	0.611095	0.00530097
1.66198	0.598285	0.0137267
1.66590	0.583709	0.00672758
1.66982	0.618328	0.00860093
1.67372	0.602807	0.0139688
1.67763	0.587069	5.87069e-06
1.68152	0.603992	0.0164411
1.68541	0.605965	0.0135375
1.68929	0.593619	0.0132888
1.69317	0.553933	0.00752879
1.69703	0.580001	0.0303595
1.70090	0.589407	0.00743501
1.70475	0.593291	0.00621316
1.70860	0.562804	5.62804e-06
1.71244	0.552428	0.00867587
1.71628	0.537300	0.0201165
1.72011	0.510331	0.00933436
1.72393	0.523283	0.00654880
1.72775	0.518928	0.00601889
1.73156	0.516666	0.00577406
1.73536	0.493226	0.00666257
1.73916	0.493382	0.00476380
1.74295	0.487158	0.00243530
1.74674	0.498931	0.0207866
1.75052	0.470820	0.00803314
1.75429	0.461637	0.00633943
1.75805	0.446610	0.00780331
1.76181	0.418664	0.00881042
1.76557	0.448315	0.00588375
1.76931	0.422955	0.0107219
1.77305	0.406958	0.0206597
1.77679	0.410016	4.10016e-06
1.78052	0.427765	0.00193694
1.78424	0.408895	0.0100204
1.78795	0.400560	0.0114344
1.79166	0.380309	0.00823495
1.79537	0.372376	0.0131594
1.79907	0.387938	0.00502247
1.80276	0.391163	0.0125850
1.80644	0.379535	0.0171484
1.81012	0.376522	0.0208793
1.81379	0.390688	0.00780275
1.81746	0.396059	0.00877210
1.82112	0.362497	0.0137289
1.82478	0.378749	0.0148140
1.82843	0.386419	0.0256178
1.83207	0.361196	0.0225082
1.83571	0.469758	0.0293262
1.83934	0.373146	0.0106095
1.84297	0.363474	0.0251461
1.84659	0.289306	0.00548707
1.85021	0.224531	0.0199057
1.85382	0.358147	0.0348122
1.85742	0.323139	0.0180339
1.86102	0.308987	0.0223642
1.86461	0.320387	0.0234797
1.86820	0.380840	0.0173891
1.87178	0.407075	0.0602246
1.87536	0.279013	0.0370414
1.87893	0.313822	0.0176555
1.88249	0.312011	0.0169348
1.88605	0.332289	0.00922292
1.88961	0.337774	0.0172901
1.89316	0.375426	0.0253740
1.89670	0.385385	0.00958380
1.90024	0.355720	0.0269787
1.90377	0.378080	0.0224122
1.90730	0.320477	0.0159396
1.91082	0.361811	0.0166418
1.91434	0.294836	0.0275885
1.91785	0.295954	0.0165214
1.92136	0.328877	0.00641375
1.92486	0.290181	0.0311005
1.92836	0.297799	0.0104069
1.93185	0.325655	0.0197106
1.93534	0.332596	0.00613124
1.93882	0.319891	0.0122169
1.94229	0.304062	0.00359132
1.94577	0.275087	0.00649604
1.94923	0.298527	0.00305618
1.95269	0.282315	0.0119629
1.95615	0.327312	0.0111723
1.95960	0.282332	0.00514852
1.96305	0.280366	0.0221637
1.96649	0.298678	0.00288296
1.96993	0.327730	0.00533791
1.97336	0.265114	0.00987132
1.97679	0.271664	0.00648614
1.98021	0.255015	0.0100102
1.98363	0.276583	2.76583e-06
1.98705	0.278535	0.00830418
1.99045	0.284660	0.000884758
1.99386	0.291827	0.00509158
1.99726	0.292622	0.0106598
2.00065	0.324484	0.0112504
2.00404	0.288131	0.0318174
2.00743	0.262495	0.0123544
2.01081	0.292955	0.00241955
2.01418	0.282797	0.00606044
2.01756	0.255306	0.00552123
2.02092	0.257347	0.00490921
2.02429	0.258372	0.0142141
2.02764	0.266357	0.00702485
2.03100	0.270149	0.0117464
2.03435	0.273196	0.00531138
2.03769	0.260169	0.0122337
2.04103	0.291781	0.0146518
2.04436	0.271272	0.00722539
2.04769	0.295577	0.0189972
2.05102	0.272567	0.0120951
2.05434	0.240705	0.0193252
2.05766	0.279224	0.00384880
2.06097	0.277927	0.00191744
2.06428	0.269287	0.00239846
2.06758	0.281856	0.00482667
2.07088	0.255397	0.00908934
2.07417	0.292029	0.00457801
2.07746	0.263741	0.00467354
2.08075	0.275887	0.0153355
2.08403	0.285067	0.00415409
2.08731	0.270742	0.00178860
2.09058	0.284816	0.00950966
2.09385	0.283954	0.00268614
2.09711	0.271730	0.00107295
2.10037	0.271150	0.0102000
2.10362	0.289961	0.00303509
2.10687	0.280278	0.00257068
2.11011	0.291362	0.00876020
2.11335	0.301010	0.00898646
2.11659	0.284425	0.00310586
2.11982	0.283879	0.00485217
2.12304	0.279761	0.00764166
2.12627	0.269189	0.00380301
2.12948	0.307295	0.00771712
2.13270	0.278153	0.00548310
2.13590	0.287879	0.00175291
2.13911	0.285704	0.00985763
2.14230	0.287848	0.00583381
2.14550	0.277258	0.0107217
2.14869	0.296486	0.0100729
2.15187	0.271549	0.00640816
2.15505	0.289718	0.0100374
2.15823	0.292407	0.00887790
2.16140	0.302328	0.0110674
2.16456	0.296421	0.00316493
2.16772	0.280183	0.00507104
2.17088	0.292535	0.00709278
2.17403	0.293552	0.00625095
2.17718	0.292206	0.00237221
2.18032	0.299342	0.00680491
2.18346	0.302839	0.00700800
2.18659	0.290755	0.00512476
2.18972	0.292453	0.00649412
2.19284	0.303755	0.00359004
2.19596	0.306004	0.00294530
2.19907	0.322354	0.00627522
2.20218	0.285460	0.00188170
2.20528	0.293628	0.00705387
2.20838	0.292174	0.00459302
2.21147	0.301786	0.00632776
2.21456	0.301749	3.01749e-06
2.21764	0.282972	0.00978351
2.22072	0.303452	0.00492541
2.22379	0.285612	0.00799318
2.22686	0.300160	0.0115259
2.22992	0.299362	0.00770049
2.23298	0.313294	0.00686552
2.23603	0.309240	0.00462816
2.23908	0.292027	0.00509169
2.24212	0.297145	0.00438599
2.24516	0.285560	0.00757214
2.24819	0.291021	0.00669687
2.25122	0.291794	0.00673773
2.25424	0.294089	0.00450733
2.25726	0.296852	0.00364835
2.26027	0.298240	0.00779473
2.26328	0.291346	0.00646647
2.26628	0.277181	0.0105640
2.26927	0.288513	0.00683426
2.27226	0.296445	0.00619820
2.27525	0.280759	0.00697231
2.27823	0.292438	0.00681837
2.28121	0.294500	0.00708784
2.28418	0.297651	0.00720510
2.28714	0.286494	0.00327013
2.29010	0.289576	0.00743220
2.29305	0.287058	0.00520153
2.29600	0.268796	0.0100534
2.29895	0.229011	0.0137604
2.30189	0.248336	0.00812600
2.30482	0.252028	0.00905538
2.30775	0.264653	0.00774062
2.31067	0.267863	0.00773740
2.31359	0.252787	0.00783988
2.31650	0.241237	0.00644776
2.31941	0.245012	0.00428823
2.32232	0.242838	0.00669222
2.32521	0.231223	0.00759506
2.32811	0.240667	0.00555057
2.33100	0.227387	0.00924146
2.33388	0.250131	0.00446321
2.33676	0.228507	0.0103925
2.33963	0.233182	0.0110299
2.34250	0.237452	0.0109177
2.34536	0.242686	0.00200325
2.34822	0.243829	0.00522983
2.35107	0.225124	0.00987930
2.35392	0.223076	0.00868078
2.35677	0.214343	0.00648773
2.35961	0.206834	0.0153697
2.36244	0.222415	0.00432031
2.36528	0.206501	0.0103093
2.36810	0.233727	0.0157487
2.37092	0.236949	0.0230157
2.37374	0.240751	0.00761165
2.37656	0.196618	0.00542821
2.37937	0.221197	0.00767848
2.38217	0.218155	0.0130027
2.38497	0.211904	0.00511366
2.38777	0.196449	0.00405912
2.39057	0.209380	0.00753070
2.39336	0.222207	0.00715612
2.39614	0.202532	0.00869376
2.39893	0.200539	0.0113097
2.40171	0.221434	0.00237137
2.40448	0.188194	0.00422058
2.40726	0.202528	0.0107007
2.41003	0.195707	0.00910287
2.41280	0.174639	0.00538371
2.41556	0.198882	0.0152199
2.41832	0.187596	0.0233483
2.42108	0.152930	0.0133187
2.42384	0.175511	0.0140448
2.42660	0.194554	0.0109347
2.42935	0.179174	0.0127244
2.43210	0.204253	0.0138992
2.43485	0.183145	0.00932474
2.43760	0.168014	0.0133231
2.44035	0.156246	0.0199160
2.44309	0.179961	0.0172977
2.44584	0.166600	0.00317173
2.44858	0.155665	0.0290916
2.45133	0.143161	0.0128453
2.45407	0.152538	0.00633860
2.45682	0.157847	0.0153989
2.45956	0.137588	0.0137234
2.46230	0.158248	0.0135246
2.46505	0.156963	0.0286056
2.46779	0.144221	0.0138196
2.47054	0.143676	0.0211004
2.47329	0.164517	0.00758480
2.47604	0.120939	0.00469413
2.47879	0.134797	0.0348071
2.48154	0.123604	0.0225539
2.48430	0.137040	0.0481798
2.48706	0.179871	0.0296898
2.48982	0.171315	0.0201884
2.49259	0.0410108	0.0372375
2.49536	0.154533	0.0711535
2.49813	0.133166	0.0321038
2.50091	0.0927027	0.0236755
2.50370	0.192346	0.0244836
2.50648	0.126227	0.0209990
2.50928	0.141281	0.00983855
2.51208	0.189545	0.0238417
2.51489	0.196917	0.0525259
2.51770	0.161226	0.0444251
2.52052	0.269132	0.0288390
2.52335	0.203867	0.0368474
2.52619	0.100835	0.0359516
2.52903	0.232219	0.0933340
2.53188	0.132195	0.112785
2.53475	0.416012	0.184017
2.53762	-0.0909388	0.00000
2.54051	-0.0179579	0.00000
2.54340	-0.00702052	0.00000
2.54631	0.143408	0.174798
2.54922	-0.122082	0.00000
2.55216	-0.359704	0.00000
2.55510	-0.399592	0.00000
2.55806	0.779033	0.319485
2.56103	-0.152502	0.00000
